* Measurement data measured by REW V5.31.1
* Source: Microphone (USB Sound Device        ), MICROPHONE (Master Volume), L, volume: 0.250
* Format: 256k Log Swept Sine, 1 sweep at -20.0 dBFS with no timing reference
* Dated: Dec 5, 2025 10:43:26 PM
* REW Settings:
*  C-weighting compensation: Off
*  Target level: 75.0 dB
* Note: 
* Measurement: R hype 4 stock blue 1254
* Smoothing: None
* Frequency Step: 1/48 octave
* Start Frequency: 20.300 Hz
*
* Freq(Hz) SPL(dB) Phase(degrees)
20.299999 124.122 14.7092
20.600000 124.167 13.4018
20.900000 124.140 11.9773
21.200001 124.079 10.5857
21.400000 124.039 9.7541
21.799999 123.981 8.3944
22.000000 123.974 7.8924
22.400000 124.007 7.2514
22.700001 124.069 7.0437
23.000000 124.153 6.9689
23.299999 124.244 6.8710
23.600000 124.322 6.6160
24.000000 124.365 5.9205
24.299999 124.327 5.2050
24.700001 124.185 4.2807
25.000000 124.048 3.8337
25.400000 123.906 3.6502
25.799999 123.887 3.5752
26.200001 123.983 3.0180
26.500000 124.071 2.1362
26.900000 124.136 0.5743
27.200001 124.124 -0.5262
27.600000 124.058 -1.4644
28.000000 124.016 -1.7041
28.500000 124.080 -1.6996
29.000000 124.191 -2.2736
29.500000 124.196 -3.3507
30.000000 124.065 -4.1119
30.400000 123.944 -4.2225
30.700001 123.892 -4.1614
31.100000 123.889 -4.2512
31.500000 123.931 -4.7126
32.000000 123.983 -5.5752
32.500000 124.014 -6.2293
33.000000 124.044 -6.5433
33.500000 124.061 -6.8859
34.000000 124.014 -7.5464
34.500000 123.889 -8.3824
35.000000 123.748 -9.1068
35.500000 123.677 -9.6189
36.000000 123.699 -10.0057
36.500000 123.767 -10.2994
37.000000 123.817 -10.4562
37.500000 123.815 -10.5229
38.200001 123.718 -10.8011
38.700001 123.604 -11.2696
39.500000 123.456 -12.2012
40.000000 123.443 -12.7321
40.599998 123.496 -13.3816
41.200001 123.542 -14.1241
41.799999 123.521 -14.8076
42.500000 123.450 -15.3010
43.099998 123.416 -15.5960
43.700001 123.405 -16.0042
44.400002 123.360 -16.4968
45.000000 123.296 -16.7114
45.500000 123.256 -16.8582
46.200001 123.224 -17.3455
46.799999 123.187 -17.9197
47.500000 123.142 -18.2992
48.200001 123.131 -18.4903
48.700001 123.123 -18.7758
49.400002 123.067 -19.3477
50.000000 123.004 -19.7718
50.799999 122.951 -20.2968
51.500000 122.895 -20.7134
52.200001 122.820 -20.8046
53.000000 122.775 -20.9000
53.799999 122.722 -21.6742
54.500000 122.620 -22.4366
55.200001 122.532 -22.7788
56.000000 122.484 -22.9731
57.000000 122.409 -23.2000
58.000000 122.342 -23.5292
59.000000 122.260 -24.2385
60.000000 122.185 -24.4936
60.799999 122.159 -24.6815
61.500000 122.090 -24.9787
62.200001 121.983 -25.1434
63.000000 121.885 -25.2820
64.000000 121.811 -25.6939
65.000000 121.764 -26.0246
66.000000 121.713 -26.2057
67.000000 121.626 -26.3760
68.000000 121.533 -26.7643
69.000000 121.452 -27.1458
70.000000 121.391 -27.2796
71.000000 121.306 -27.3781
72.000000 121.207 -27.5852
73.000000 121.134 -27.9126
74.000000 121.060 -28.0332
75.000000 120.968 -27.9237
76.199997 120.843 -28.0696
77.500000 120.757 -28.3256
78.800003 120.727 -28.4853
80.000000 120.615 -28.5948
81.199997 120.480 -28.5955
82.500000 120.362 -28.6418
83.800003 120.259 -28.6994
85.000000 120.186 -28.7205
86.199997 120.094 -28.5930
87.500000 119.987 -28.5651
88.500000 119.904 -28.7264
90.000000 119.830 -28.8259
91.199997 119.722 -28.6903
92.500000 119.625 -28.4462
93.800003 119.563 -28.1715
95.000000 119.482 -27.7696
96.199997 119.358 -27.7848
97.500000 119.268 -28.1067
98.800003 119.230 -28.0315
100.000000 119.142 -27.6114
101.500000 118.988 -27.4200
103.000000 118.907 -27.2503
104.400002 118.869 -26.8835
106.000000 118.756 -26.2041
107.500000 118.658 -26.1476
109.000000 118.581 -25.8988
110.599998 118.499 -25.4300
112.000000 118.403 -25.2231
113.800003 118.319 -24.8427
115.000000 118.281 -24.6644
117.199997 118.182 -23.8149
118.000000 118.132 -23.6374
120.599998 117.999 -23.1779
122.000000 117.966 -22.8329
124.099998 117.922 -22.1059
125.000000 117.897 -21.7746
126.500000 117.872 -21.2917
128.000000 117.792 -20.7549
131.500000 117.687 -20.0732
132.000000 117.671 -19.9322
134.000000 117.601 -19.5091
136.000000 117.587 -18.9361
138.000000 117.577 -18.2492
140.000000 117.501 -17.4639
143.000000 117.456 -16.7397
145.000000 117.439 -16.2181
147.500000 117.401 -15.4923
150.000000 117.359 -14.9278
152.500000 117.363 -14.1687
155.000000 117.316 -13.5466
157.500000 117.339 -12.9561
160.000000 117.348 -12.4183
162.500000 117.337 -12.0009
165.000000 117.340 -11.4391
167.500000 117.301 -10.8378
170.000000 117.289 -10.1962
172.500000 117.330 -9.7218
175.000000 117.364 -9.2038
177.500000 117.375 -8.7677
180.000000 117.366 -8.3250
182.500000 117.394 -7.9113
185.000000 117.405 -7.5692
187.500000 117.408 -7.2860
190.000000 117.424 -6.9698
192.500000 117.428 -6.5269
195.000000 117.455 -6.1094
197.500000 117.478 -5.5985
200.000000 117.503 -5.4190
203.000000 117.506 -4.7993
206.000000 117.483 -4.4100
209.000000 117.498 -4.0523
212.000000 117.580 -3.3912
214.000000 117.594 -2.8001
218.000000 117.716 -1.9991
220.000000 117.740 -1.6285
224.000000 117.878 -1.4866
227.000000 117.965 -1.3054
230.000000 118.022 -1.3075
233.000000 118.067 -1.5883
236.000000 118.109 -1.6755
240.000000 118.199 -1.7112
243.000000 118.202 -1.7973
247.000000 118.194 -1.9537
250.000000 118.192 -2.1506
254.000000 118.230 -2.0279
258.000000 118.249 -1.8402
262.000000 118.292 -1.5327
265.000000 118.294 -1.5816
269.000000 118.289 -1.7138
272.000000 118.305 -1.8497
276.000000 118.312 -2.0028
280.000000 118.325 -2.0502
285.000000 118.342 -1.7408
290.000000 118.382 -1.4332
295.000000 118.377 -1.4868
300.000000 118.378 -1.7574
304.000000 118.385 -1.7805
307.000000 118.379 -1.8468
311.000000 118.396 -1.8173
315.000000 118.412 -1.6891
320.000000 118.395 -1.3960
325.000000 118.386 -1.5047
330.000000 118.385 -1.5761
335.000000 118.376 -1.6458
340.000000 118.387 -1.5739
345.000000 118.399 -1.4741
350.000000 118.372 -1.5881
355.000000 118.377 -1.6702
360.000000 118.351 -1.5969
365.000000 118.342 -1.6439
370.000000 118.322 -1.6698
375.000000 118.312 -1.4340
382.000000 118.298 -1.4239
387.000000 118.269 -1.3386
395.000000 118.260 -1.4803
400.000000 118.231 -1.3225
406.000000 118.202 -1.2781
412.000000 118.200 -1.0893
418.000000 118.173 -1.1057
425.000000 118.152 -1.1526
431.000000 118.150 -1.1251
437.000000 118.099 -1.0986
444.000000 118.048 -0.9597
450.000000 118.008 -0.6257
455.000000 117.995 -0.5223
462.000000 117.969 -0.4033
468.000000 117.936 -0.4314
475.000000 117.896 -0.3748
482.000000 117.866 -0.1569
487.000000 117.854 -0.0073
494.000000 117.818 0.1805
500.000000 117.798 0.3932
508.000000 117.737 0.3728
515.000000 117.703 0.6186
522.000000 117.648 0.9156
530.000000 117.624 1.1228
538.000000 117.586 1.3562
545.000000 117.541 1.5592
552.000000 117.503 1.7318
560.000000 117.473 2.0328
570.000000 117.401 2.4540
580.000000 117.351 2.7924
590.000000 117.299 3.2517
600.000000 117.217 3.8397
608.000000 117.182 4.0368
615.000000 117.144 4.3852
622.000000 117.106 4.6120
630.000000 117.084 5.0171
640.000000 117.041 5.5398
650.000000 117.021 6.0440
660.000000 116.952 6.5376
670.000000 116.902 7.0805
680.000000 116.864 7.7174
690.000000 116.807 8.3385
700.000000 116.771 9.0030
710.000000 116.766 9.4482
720.000000 116.701 9.9997
730.000000 116.671 10.4858
740.000000 116.672 11.3432
750.000000 116.630 11.7455
762.000000 116.586 12.7318
775.000000 116.586 13.3728
788.000000 116.554 14.5261
800.000000 116.521 15.2895
812.000000 116.488 16.1227
825.000000 116.484 16.9802
838.000000 116.498 17.9967
850.000000 116.497 18.8391
862.000000 116.515 19.6210
875.000000 116.512 20.4243
885.000000 116.551 21.1687
900.000000 116.552 22.2665
912.000000 116.588 23.2520
925.000000 116.623 23.8793
938.000000 116.671 24.7048
950.000000 116.701 25.7359
962.000000 116.768 26.4865
975.000000 116.802 27.0830
988.000000 116.829 28.0026
1000.000000 116.849 29.1573
1015.000000 116.960 29.5540
1030.000000 117.057 30.1174
1044.000000 117.123 30.8419
1060.000000 117.193 31.7723
1075.000000 117.284 32.4299
1090.000000 117.328 33.0633
1106.000000 117.412 33.5441
1120.000000 117.508 34.3907
1138.000000 117.582 34.8127
1150.000000 117.645 35.3871
1172.000000 117.767 36.0000
1180.000000 117.779 36.3559
1206.000000 117.927 37.1123
1220.000000 117.977 37.6322
1241.000000 118.056 38.0919
1250.000000 118.091 38.2714
1265.000000 118.168 38.8320
1280.000000 118.209 38.9087
1315.000000 118.341 40.0083
1320.000000 118.355 40.1746
1340.000000 118.406 40.8972
1360.000000 118.485 41.4147
1380.000000 118.547 41.9968
1400.000000 118.617 42.2762
1430.000000 118.718 43.3072
1450.000000 118.797 43.9567
1475.000000 118.871 44.7008
1500.000000 118.971 45.5816
1525.000000 119.092 46.1138
1550.000000 119.204 46.9672
1575.000000 119.271 47.8593
1600.000000 119.379 48.3501
1625.000000 119.489 49.0685
1650.000000 119.633 49.7893
1675.000000 119.747 50.6025
1700.000000 119.876 51.0995
1725.000000 120.002 51.7709
1750.000000 120.117 52.5535
1775.000000 120.250 53.0158
1800.000000 120.405 53.5929
1825.000000 120.577 54.1165
1850.000000 120.719 54.6523
1875.000000 120.866 54.9359
1900.000000 121.048 55.5091
1925.000000 121.201 55.8920
1950.000000 121.355 55.9985
1975.000000 121.536 56.3080
2000.000000 121.710 56.1944
2030.000000 121.903 56.6171
2060.000000 122.089 56.7849
2090.000000 122.294 56.8355
2120.000000 122.516 56.6216
2140.000000 122.652 56.4534
2180.000000 122.927 56.2005
2200.000000 123.057 55.8627
2240.000000 123.285 55.2822
2270.000000 123.465 54.7777
2300.000000 123.626 54.1194
2330.000000 123.769 53.5197
2360.000000 123.923 52.7874
2400.000000 124.095 51.7957
2430.000000 124.221 50.8864
2470.000000 124.366 49.6380
2500.000000 124.427 48.8678
2540.000000 124.534 47.6000
2580.000000 124.590 46.3293
2620.000000 124.633 45.3818
2650.000000 124.668 44.3269
2690.000000 124.711 43.2279
2720.000000 124.727 42.3875
2760.000000 124.714 41.3715
2800.000000 124.703 40.3219
2850.000000 124.686 39.0742
2900.000000 124.658 38.1121
2950.000000 124.590 37.0196
3000.000000 124.535 36.1742
3040.000000 124.468 35.5332
3070.000000 124.444 34.8945
3110.000000 124.367 34.3139
3150.000000 124.308 33.8658
3200.000000 124.230 33.2807
3250.000000 124.170 32.7139
3300.000000 124.083 32.0868
3350.000000 124.025 31.8002
3400.000000 123.914 31.6102
3450.000000 123.848 31.3291
3500.000000 123.805 31.0668
3550.000000 123.760 31.0470
3600.000000 123.727 30.8789
3650.000000 123.731 30.5908
3700.000000 123.710 30.1976
3750.000000 123.698 29.8334
3820.000000 123.654 29.0533
3870.000000 123.652 28.5080
3950.000000 123.644 27.3125
4000.000000 123.587 26.5931
4060.000000 123.569 25.0746
4120.000000 123.492 23.2985
4180.000000 123.384 21.4451
4250.000000 123.078 18.4753
4310.000000 122.569 16.0310
4370.000000 121.882 14.6176
4440.000000 120.932 15.7836
4500.000000 120.213 19.1003
4550.000000 119.875 22.9428
4620.000000 119.709 28.5268
4680.000000 119.894 32.2724
4750.000000 120.141 35.4798
4820.000000 120.464 37.5159
4870.000000 120.690 38.5422
4940.000000 120.998 39.2151
5000.000000 121.229 39.2535
5080.000000 121.500 39.0993
5150.000000 121.682 38.3083
5220.000000 121.799 37.4251
5300.000000 121.848 36.2519
5380.000000 121.838 35.1073
5450.000000 121.779 34.4074
5520.000000 121.720 33.6695
5600.000000 121.588 33.0045
5700.000000 121.403 33.0065
5800.000000 121.236 32.9783
5900.000000 121.124 33.4101
6000.000000 121.064 34.5884
6080.000000 120.970 35.1913
6150.000000 120.945 35.8349
6220.000000 120.981 36.7269
6300.000000 121.007 37.5760
6400.000000 121.192 38.5713
6500.000000 121.434 39.2932
6600.000000 121.723 39.5933
6700.000000 122.057 39.4983
6800.000000 122.449 38.7693
6900.000000 122.839 37.1782
7000.000000 123.304 34.6079
7100.000000 123.640 31.2023
7200.000000 123.869 26.6187
7300.000000 123.903 21.7984
7400.000000 123.717 16.8991
7500.000000 123.425 13.3930
7620.000000 123.008 9.7689
7750.000000 122.635 6.9922
7880.000000 122.307 4.0778
8000.000000 121.852 1.0959
8120.000000 121.497 -0.7361
8250.000000 121.035 -2.0050
8380.000000 120.610 -2.9253
8500.000000 120.291 -2.7589
8620.000000 120.051 -2.4599
8750.000000 119.949 -1.8202
8850.000000 119.938 -1.7471
9000.000000 120.079 -1.5908
9120.000000 120.222 -2.5856
9250.000000 120.506 -4.3198
9380.000000 120.771 -7.7300
9500.000000 120.859 -11.5081
9620.000000 120.777 -16.5252
9750.000000 120.269 -21.5673
9880.000000 119.530 -24.8990
10000.000000 118.716 -25.3979
10150.000000 117.969 -23.8084
10300.000000 117.539 -21.5136
10440.000000 117.300 -19.9452
10600.000000 116.849 -18.8416
10750.000000 116.518 -16.3328
10900.000000 116.313 -13.6095
11060.000000 116.111 -9.0414
11200.000000 116.115 -5.9342
11380.000000 116.119 -1.0681
11500.000000 116.362 2.1787
11720.000000 116.745 7.5952
11800.000000 116.933 9.3196
12060.000000 117.945 15.2363
12200.000000 118.593 17.2756
12410.000000 119.786 18.9147
12500.000000 120.263 18.1526
12650.000000 121.306 15.9555
12800.000000 122.112 11.1005
13150.000000 122.433 -5.6338
13200.000000 122.257 -8.0465
13400.000000 121.237 -14.5752
13600.000000 119.962 -17.0273
13800.000000 118.787 -16.0295
14000.000000 117.842 -12.8105
14300.000000 116.848 -5.0434
14500.000000 116.586 0.3756
14750.000000 116.542 7.5059
15000.000000 116.871 14.3937
15250.000000 117.572 19.9975
15500.000000 118.639 22.2604
15750.000000 119.949 22.2866
16000.000000 121.393 19.6812
16250.000000 122.959 6.6856
16500.000000 122.459 -11.0012
16750.000000 120.735 -19.9004
17000.000000 119.186 -21.2477
17250.000000 118.096 -18.8332
17500.000000 117.493 -15.2257
17750.000000 117.382 -11.7926
18000.000000 117.825 -10.0011
18250.000000 118.241 -12.0661
18500.000000 118.638 -19.0160
18750.000000 118.469 -29.0110
19000.000000 117.411 -40.5607
19250.000000 115.559 -49.9018
19500.000000 113.361 -54.6536
19750.000000 111.324 -57.9259
