* Measurement data measured by REW V5.31.1
* Source: Microphone (4- USB Sound Device        ), MICROPHONE (Master Volume), L, volume: 0.250
* Format: 256k Log Swept Sine, 1 sweep at -20.0 dBFS with no timing reference
* Dated: Jan 4, 2026 9:22:03 PM
* REW Settings:
*  C-weighting compensation: Off
*  Target level: 75.0 dB
* Note: 
* Measurement: L kt02 1833
* Smoothing: None
* Frequency Step: 1/48 octave
* Start Frequency: 20.300 Hz
*
* Freq(Hz) SPL(dB) Phase(degrees)
20.299999 93.958 33.4302
20.600000 93.956 32.5611
20.900000 93.952 31.7819
21.200001 93.951 30.9984
21.400000 93.952 30.4640
21.799999 93.956 29.3651
22.000000 93.957 28.8053
22.400000 93.956 27.6890
22.700001 93.950 26.8789
23.000000 93.942 26.1099
23.299999 93.933 25.3842
23.600000 93.925 24.6948
24.000000 93.918 23.8124
24.299999 93.915 23.1615
24.700001 93.913 22.2944
25.000000 93.910 21.6431
25.400000 93.904 20.7785
25.799999 93.893 19.9284
26.200001 93.878 19.1007
26.500000 93.866 18.4958
26.900000 93.852 17.7063
27.200001 93.843 17.1207
27.600000 93.834 16.3385
28.000000 93.826 15.5478
28.500000 93.811 14.5601
29.000000 93.784 13.6195
29.500000 93.750 12.7656
30.000000 93.718 11.9773
30.400000 93.698 11.3411
30.700001 93.685 10.8363
31.100000 93.668 10.1243
31.500000 93.646 9.3992
32.000000 93.613 8.5456
32.500000 93.584 7.7873
33.000000 93.564 7.0764
33.500000 93.548 6.3440
34.000000 93.523 5.5822
34.500000 93.487 4.8431
35.000000 93.447 4.1602
35.500000 93.410 3.5123
36.000000 93.378 2.8629
36.500000 93.346 2.2061
37.000000 93.315 1.5506
37.500000 93.288 0.8868
38.200001 93.250 -0.0785
38.700001 93.218 -0.7564
39.500000 93.164 -1.7037
40.000000 93.136 -2.2354
40.599998 93.107 -2.8894
41.200001 93.073 -3.5723
41.799999 93.033 -4.2403
42.500000 92.987 -4.9829
43.099998 92.948 -5.6068
43.700001 92.906 -6.2177
44.400002 92.854 -6.9072
45.000000 92.808 -7.4860
45.500000 92.771 -7.9644
46.200001 92.722 -8.6399
46.799999 92.681 -9.2345
47.500000 92.631 -9.9096
48.200001 92.583 -10.5123
48.700001 92.553 -10.9153
49.400002 92.513 -11.4921
50.000000 92.473 -11.9895
50.799999 92.414 -12.6240
51.500000 92.365 -13.1769
52.200001 92.315 -13.7067
53.000000 92.263 -14.2485
53.799999 92.214 -14.8366
54.500000 92.154 -15.3965
55.200001 92.088 -15.8833
56.000000 92.034 -16.3954
57.000000 91.978 -17.1204
58.000000 91.909 -17.7619
59.000000 91.837 -18.3551
60.000000 91.767 -18.9319
60.799999 91.719 -19.3920
61.500000 91.673 -19.7845
62.200001 91.625 -20.1240
63.000000 91.578 -20.5386
64.000000 91.508 -21.1612
65.000000 91.428 -21.6957
66.000000 91.356 -22.1658
67.000000 91.293 -22.6114
68.000000 91.228 -23.1215
69.000000 91.150 -23.5756
70.000000 91.086 -23.9699
71.000000 91.024 -24.3879
72.000000 90.963 -24.7457
73.000000 90.898 -25.1433
74.000000 90.826 -25.5204
75.000000 90.760 -25.9056
76.199997 90.675 -26.3712
77.500000 90.583 -26.7859
78.800003 90.504 -27.1722
80.000000 90.432 -27.5637
81.199997 90.351 -27.9029
82.500000 90.266 -28.2544
83.800003 90.183 -28.5921
85.000000 90.112 -28.8990
86.199997 90.037 -29.1781
87.500000 89.951 -29.4407
88.500000 89.885 -29.6728
90.000000 89.792 -29.9631
91.199997 89.720 -30.2109
92.500000 89.629 -30.4668
93.800003 89.554 -30.7333
95.000000 89.483 -30.9427
96.199997 89.414 -31.0761
97.500000 89.336 -31.2850
98.800003 89.263 -31.4716
100.000000 89.193 -31.6266
101.500000 89.106 -31.7603
103.000000 89.016 -31.9575
104.400002 88.944 -32.1820
106.000000 88.856 -32.2681
107.500000 88.769 -32.4236
109.000000 88.690 -32.5594
110.599998 88.611 -32.5989
112.000000 88.540 -32.6375
113.800003 88.438 -32.7857
115.000000 88.376 -32.8646
117.199997 88.265 -32.9197
118.000000 88.229 -32.9433
120.599998 88.109 -32.9781
122.000000 88.038 -32.9984
124.099998 87.937 -33.0457
125.000000 87.898 -33.0701
126.500000 87.831 -33.0497
128.000000 87.764 -33.0622
131.500000 87.610 -33.0452
132.000000 87.589 -33.0239
134.000000 87.498 -32.9483
136.000000 87.417 -32.8930
138.000000 87.326 -32.8065
140.000000 87.256 -32.7811
143.000000 87.127 -32.5849
145.000000 87.057 -32.4747
147.500000 86.958 -32.3541
150.000000 86.871 -32.2381
152.500000 86.786 -32.1425
155.000000 86.706 -31.9717
157.500000 86.621 -31.7438
160.000000 86.538 -31.5257
162.500000 86.457 -31.3035
165.000000 86.365 -31.1069
167.500000 86.291 -30.9130
170.000000 86.213 -30.7600
172.500000 86.150 -30.4983
175.000000 86.081 -30.1900
177.500000 86.004 -29.9629
180.000000 85.932 -29.7875
182.500000 85.884 -29.5495
185.000000 85.820 -29.2566
187.500000 85.753 -29.0740
190.000000 85.703 -28.7756
192.500000 85.643 -28.5740
195.000000 85.586 -28.3632
197.500000 85.545 -28.0192
200.000000 85.478 -27.8185
203.000000 85.426 -27.5336
206.000000 85.354 -27.2025
209.000000 85.295 -26.9361
212.000000 85.244 -26.5502
214.000000 85.203 -26.3518
218.000000 85.134 -25.9567
220.000000 85.103 -25.7470
224.000000 85.028 -25.3035
227.000000 84.975 -24.9394
230.000000 84.934 -24.6341
233.000000 84.896 -24.3671
236.000000 84.848 -24.0679
240.000000 84.794 -23.7064
243.000000 84.753 -23.3579
247.000000 84.703 -22.9318
250.000000 84.664 -22.6154
254.000000 84.608 -22.2332
258.000000 84.573 -21.8151
262.000000 84.511 -21.4043
265.000000 84.488 -21.1491
269.000000 84.456 -20.7808
272.000000 84.422 -20.4689
276.000000 84.371 -20.0907
280.000000 84.345 -19.6198
285.000000 84.293 -19.1721
290.000000 84.247 -18.7320
295.000000 84.209 -18.2434
300.000000 84.180 -17.8547
304.000000 84.140 -17.5006
307.000000 84.127 -17.2414
311.000000 84.102 -16.8577
315.000000 84.073 -16.4924
320.000000 84.037 -16.0321
325.000000 84.006 -15.6595
330.000000 83.969 -15.2285
335.000000 83.943 -14.7967
340.000000 83.917 -14.3858
345.000000 83.885 -13.9232
350.000000 83.856 -13.5144
355.000000 83.837 -13.1203
360.000000 83.808 -12.6672
365.000000 83.787 -12.3301
370.000000 83.757 -11.9538
375.000000 83.728 -11.5261
382.000000 83.708 -10.9510
387.000000 83.676 -10.5867
395.000000 83.644 -9.9367
400.000000 83.616 -9.4985
406.000000 83.605 -9.0935
412.000000 83.587 -8.5930
418.000000 83.566 -8.1962
425.000000 83.545 -7.5321
431.000000 83.542 -7.1241
437.000000 83.548 -6.6287
444.000000 83.530 -6.0512
450.000000 83.523 -5.6086
455.000000 83.512 -5.3391
462.000000 83.516 -4.8851
468.000000 83.512 -4.4181
475.000000 83.503 -3.9650
482.000000 83.492 -3.5547
487.000000 83.490 -3.2355
494.000000 83.491 -2.8056
500.000000 83.482 -2.4739
508.000000 83.477 -1.9743
515.000000 83.469 -1.5855
522.000000 83.463 -1.1832
530.000000 83.451 -0.6669
538.000000 83.448 -0.1995
545.000000 83.447 0.1426
552.000000 83.442 0.4602
560.000000 83.411 0.8481
570.000000 83.404 1.5313
580.000000 83.379 2.0891
590.000000 83.364 2.6729
600.000000 83.355 3.4553
608.000000 83.340 3.9463
615.000000 83.335 4.4189
622.000000 83.343 4.9286
630.000000 83.343 5.4422
640.000000 83.355 6.1257
650.000000 83.372 6.8241
660.000000 83.383 7.4316
670.000000 83.400 8.0920
680.000000 83.405 8.6860
690.000000 83.422 9.2164
700.000000 83.443 9.8351
710.000000 83.456 10.5086
720.000000 83.460 11.0755
730.000000 83.481 11.6162
740.000000 83.521 12.3396
750.000000 83.530 12.9510
762.000000 83.566 13.6561
775.000000 83.600 14.4707
788.000000 83.649 15.2029
800.000000 83.678 15.9048
812.000000 83.713 16.6254
825.000000 83.776 17.4364
838.000000 83.834 18.1303
850.000000 83.887 18.7868
862.000000 83.949 19.5485
875.000000 84.011 20.1379
885.000000 84.073 20.7636
900.000000 84.142 21.4918
912.000000 84.212 22.0711
925.000000 84.296 22.7762
938.000000 84.386 23.3914
950.000000 84.457 23.8963
962.000000 84.536 24.4023
975.000000 84.633 24.9590
988.000000 84.728 25.4585
1000.000000 84.786 25.6186
1015.000000 84.924 26.4092
1030.000000 85.036 26.8873
1044.000000 85.144 27.2441
1060.000000 85.269 27.6816
1075.000000 85.375 28.0384
1090.000000 85.490 28.2851
1106.000000 85.604 28.5524
1120.000000 85.696 28.8102
1138.000000 85.824 29.0680
1150.000000 85.909 29.1788
1172.000000 86.058 29.3583
1180.000000 86.105 29.4418
1206.000000 86.272 29.6958
1220.000000 86.359 29.6652
1241.000000 86.481 29.7316
1250.000000 86.534 29.7561
1265.000000 86.610 29.7778
1280.000000 86.693 29.8005
1315.000000 86.868 29.7948
1320.000000 86.897 29.7912
1340.000000 86.998 29.8377
1360.000000 87.080 29.8405
1380.000000 87.175 29.8039
1400.000000 87.249 29.7547
1430.000000 87.394 29.7334
1450.000000 87.469 29.6983
1475.000000 87.564 29.6147
1500.000000 87.657 29.6388
1525.000000 87.754 29.5125
1550.000000 87.853 29.5008
1575.000000 87.950 29.4848
1600.000000 88.048 29.3739
1625.000000 88.137 29.2882
1650.000000 88.233 29.2527
1675.000000 88.328 29.1456
1700.000000 88.413 29.0511
1725.000000 88.506 28.9020
1750.000000 88.594 28.6987
1775.000000 88.688 28.6024
1800.000000 88.772 28.4323
1825.000000 88.853 28.1504
1850.000000 88.928 28.0014
1875.000000 89.031 27.8213
1900.000000 89.097 27.5552
1925.000000 89.185 27.2602
1950.000000 89.262 27.0217
1975.000000 89.344 26.7186
2000.000000 89.393 26.5011
2030.000000 89.505 25.9842
2060.000000 89.588 25.5991
2090.000000 89.660 25.1444
2120.000000 89.735 24.7331
2140.000000 89.782 24.4092
2180.000000 89.880 23.7515
2200.000000 89.922 23.3935
2240.000000 90.002 22.7367
2270.000000 90.061 22.1775
2300.000000 90.117 21.6635
2330.000000 90.168 21.1269
2360.000000 90.218 20.6513
2400.000000 90.278 19.9492
2430.000000 90.315 19.4134
2470.000000 90.373 18.7165
2500.000000 90.416 18.1788
2540.000000 90.464 17.4329
2580.000000 90.520 16.6243
2620.000000 90.574 15.7513
2650.000000 90.610 15.0773
2690.000000 90.642 14.0613
2720.000000 90.659 13.2329
2760.000000 90.666 12.1061
2800.000000 90.644 10.9563
2850.000000 90.572 9.6639
2900.000000 90.470 8.6614
2950.000000 90.364 7.9226
3000.000000 90.253 7.5552
3040.000000 90.186 7.2109
3070.000000 90.143 7.0378
3110.000000 90.099 7.0213
3150.000000 90.060 6.9283
3200.000000 90.036 6.8103
3250.000000 90.012 6.8773
3300.000000 90.026 6.7200
3350.000000 90.039 6.7072
3400.000000 90.072 6.6045
3450.000000 90.113 6.4048
3500.000000 90.162 6.1308
3550.000000 90.222 5.7227
3600.000000 90.283 5.2820
3650.000000 90.341 4.6661
3700.000000 90.402 3.9648
3750.000000 90.448 3.1421
3820.000000 90.478 1.9554
3870.000000 90.478 1.1312
3950.000000 90.460 -0.1977
4000.000000 90.430 -0.9691
4060.000000 90.367 -1.4245
4120.000000 90.427 -0.7178
4180.000000 90.678 -2.6295
4250.000000 90.624 -5.0841
4310.000000 90.580 -6.5233
4370.000000 90.505 -7.9607
4440.000000 90.429 -9.7041
4500.000000 90.321 -11.1756
4550.000000 90.214 -12.4453
4620.000000 90.022 -14.0223
4680.000000 89.832 -15.4130
4750.000000 89.569 -16.7248
4820.000000 89.270 -17.7599
4870.000000 89.064 -18.3223
4940.000000 88.738 -18.8521
5000.000000 88.464 -18.9156
5080.000000 88.077 -18.9924
5150.000000 87.761 -18.6479
5220.000000 87.458 -17.9506
5300.000000 87.132 -16.9751
5380.000000 86.855 -15.7970
5450.000000 86.612 -14.4783
5520.000000 86.390 -13.0871
5600.000000 86.183 -11.4175
5700.000000 85.989 -8.9974
5800.000000 85.852 -6.5156
5900.000000 85.754 -4.0985
6000.000000 85.727 -1.6739
6080.000000 85.716 0.0896
6150.000000 85.765 1.7233
6220.000000 85.830 3.1197
6300.000000 85.898 4.6948
6400.000000 86.013 6.5055
6500.000000 86.148 7.9130
6600.000000 86.308 9.3748
6700.000000 86.478 10.4950
6800.000000 86.668 11.4996
6900.000000 86.855 12.4709
7000.000000 87.060 13.2549
7100.000000 87.286 13.7328
7200.000000 87.545 14.1618
7300.000000 87.830 14.4640
7400.000000 88.142 14.2645
7500.000000 88.496 13.4458
7620.000000 88.897 11.7605
7750.000000 89.314 8.7114
7880.000000 89.597 4.3614
8000.000000 89.686 -0.5861
8120.000000 89.525 -5.8015
8250.000000 89.084 -11.3605
8380.000000 88.409 -15.7348
8500.000000 87.656 -18.3400
8620.000000 86.849 -19.7310
8750.000000 85.983 -19.9695
8850.000000 85.375 -19.3286
9000.000000 84.525 -17.4157
9120.000000 83.995 -15.1562
9250.000000 83.467 -12.0677
9380.000000 83.088 -9.0263
9500.000000 82.786 -6.0423
9620.000000 82.529 -2.3220
9750.000000 82.476 1.4949
9880.000000 82.551 5.2531
10000.000000 82.815 8.2596
10150.000000 83.211 11.1246
10300.000000 83.743 12.7133
10440.000000 84.325 11.7118
10600.000000 84.844 7.7844
10750.000000 84.863 1.9730
10900.000000 84.196 -3.2948
11060.000000 83.049 -5.2055
11200.000000 82.006 -3.5710
11380.000000 81.010 2.5653
11500.000000 80.638 7.5552
11720.000000 80.524 17.6705
11800.000000 80.689 20.7995
12060.000000 81.518 30.0039
12200.000000 82.256 32.7675
12410.000000 83.451 33.7047
12500.000000 83.923 32.9104
12650.000000 84.589 29.9820
12800.000000 84.966 25.3872
13150.000000 84.511 14.5084
13200.000000 84.337 13.6773
13400.000000 83.549 11.4014
13600.000000 82.793 11.4084
13800.000000 82.062 13.3049
14000.000000 81.606 16.4462
14300.000000 81.315 22.0238
14500.000000 81.406 26.2166
14750.000000 81.891 30.4984
15000.000000 82.893 32.3118
15250.000000 84.164 30.5138
15500.000000 85.334 23.1366
15750.000000 86.025 13.2137
16000.000000 86.570 1.2686
16250.000000 86.335 -14.3721
16500.000000 85.369 -25.7730
16750.000000 84.648 -30.8438
17000.000000 86.067 -41.0516
17250.000000 87.352 -79.9753
17500.000000 81.992 -122.5918
17750.000000 75.563 -134.6522
18000.000000 70.266 -136.5497
18250.000000 65.660 -132.1806
18500.000000 62.300 -126.8339
18750.000000 57.824 -121.3408
19000.000000 53.202 -121.0185
19250.000000 48.257 -111.1801
19500.000000 42.300 -127.5136
19750.000000 40.897 -164.6086
