* Measurement data measured by REW V5.31.1
* Source: Microphone (4- USB Sound Device        ), MICROPHONE (Master Volume), L, volume: 0.250
* Format: 256k Log Swept Sine, 1 sweep at -20.0 dBFS with no timing reference
* Dated: Jan 4, 2026 9:23:03 PM
* REW Settings:
*  C-weighting compensation: Off
*  Target level: 75.0 dB
* Note: 
* Measurement: R kt02 1835
* Smoothing: None
* Frequency Step: 1/48 octave
* Start Frequency: 20.300 Hz
*
* Freq(Hz) SPL(dB) Phase(degrees)
20.299999 94.542 34.4009
20.600000 94.537 33.5388
20.900000 94.525 32.7549
21.200001 94.513 31.9684
21.400000 94.506 31.4391
21.799999 94.495 30.3711
22.000000 94.491 29.8361
22.400000 94.485 28.7771
22.700001 94.481 28.0028
23.000000 94.476 27.2513
23.299999 94.472 26.5209
23.600000 94.467 25.8073
24.000000 94.459 24.8738
24.299999 94.452 24.1838
24.700001 94.441 23.2783
25.000000 94.432 22.6136
25.400000 94.420 21.7509
25.799999 94.409 20.9158
26.200001 94.398 20.1039
26.500000 94.390 19.5062
26.900000 94.377 18.7207
27.200001 94.365 18.1384
27.600000 94.348 17.3700
28.000000 94.329 16.6103
28.500000 94.305 15.6737
29.000000 94.281 14.7546
29.500000 94.259 13.8579
30.000000 94.237 12.9866
30.400000 94.219 12.3077
30.700001 94.205 11.8081
31.100000 94.186 11.1533
31.500000 94.167 10.5091
32.000000 94.142 9.7150
32.500000 94.118 8.9307
33.000000 94.092 8.1587
33.500000 94.066 7.4058
34.000000 94.038 6.6760
34.500000 94.010 5.9651
35.000000 93.983 5.2649
35.500000 93.955 4.5707
36.000000 93.928 3.8853
36.500000 93.900 3.2132
37.000000 93.872 2.5558
37.500000 93.845 1.9102
38.200001 93.806 1.0227
38.700001 93.775 0.4033
39.500000 93.725 -0.5534
40.000000 93.695 -1.1324
40.599998 93.660 -1.8185
41.200001 93.627 -2.5008
41.799999 93.593 -3.1723
42.500000 93.552 -3.9304
43.099998 93.517 -4.5608
43.700001 93.481 -5.1795
44.400002 93.437 -5.8859
45.000000 93.401 -6.4792
45.500000 93.370 -6.9683
46.200001 93.327 -7.6438
46.799999 93.288 -8.2075
47.500000 93.243 -8.8505
48.200001 93.199 -9.4900
48.700001 93.167 -9.9422
49.400002 93.122 -10.5536
50.000000 93.084 -11.0519
50.799999 93.035 -11.6958
51.500000 92.994 -12.2575
52.200001 92.950 -12.8133
53.000000 92.899 -13.4262
53.799999 92.846 -14.0182
54.500000 92.801 -14.5266
55.200001 92.757 -15.0324
56.000000 92.708 -15.6146
57.000000 92.642 -16.3042
58.000000 92.577 -16.9407
59.000000 92.511 -17.6159
60.000000 92.444 -18.2666
60.799999 92.397 -18.7544
61.500000 92.356 -19.1766
62.200001 92.312 -19.5706
63.000000 92.260 -19.9935
64.000000 92.197 -20.5532
65.000000 92.131 -21.1135
66.000000 92.069 -21.6304
67.000000 92.007 -22.1152
68.000000 91.945 -22.5888
69.000000 91.879 -23.0810
70.000000 91.814 -23.5389
71.000000 91.755 -23.9883
72.000000 91.691 -24.4291
73.000000 91.627 -24.8314
74.000000 91.564 -25.2496
75.000000 91.500 -25.6378
76.199997 91.430 -26.1030
77.500000 91.348 -26.6099
78.800003 91.273 -27.0387
80.000000 91.200 -27.4215
81.199997 91.124 -27.8164
82.500000 91.047 -28.2634
83.800003 90.971 -28.6645
85.000000 90.898 -29.0019
86.199997 90.830 -29.3342
87.500000 90.757 -29.6893
88.500000 90.697 -29.9450
90.000000 90.609 -30.3251
91.199997 90.543 -30.6155
92.500000 90.464 -30.9249
93.800003 90.389 -31.1745
95.000000 90.325 -31.4303
96.199997 90.254 -31.6283
97.500000 90.182 -31.8528
98.800003 90.107 -32.0805
100.000000 90.041 -32.2610
101.500000 89.955 -32.5662
103.000000 89.874 -32.7754
104.400002 89.802 -32.9432
106.000000 89.713 -33.2083
107.500000 89.635 -33.3808
109.000000 89.559 -33.5401
110.599998 89.481 -33.7135
112.000000 89.405 -33.8609
113.800003 89.315 -34.0212
115.000000 89.259 -34.1404
117.199997 89.154 -34.2856
118.000000 89.115 -34.3498
120.599998 88.990 -34.5007
122.000000 88.918 -34.5682
124.099998 88.826 -34.7066
125.000000 88.787 -34.7436
126.500000 88.717 -34.7731
128.000000 88.647 -34.8525
131.500000 88.490 -34.9040
132.000000 88.467 -34.9080
134.000000 88.379 -34.9577
136.000000 88.295 -34.9556
138.000000 88.208 -34.9299
140.000000 88.125 -34.9003
143.000000 88.005 -34.9301
145.000000 87.922 -34.8405
147.500000 87.824 -34.7782
150.000000 87.732 -34.7684
152.500000 87.646 -34.6634
155.000000 87.554 -34.5669
157.500000 87.461 -34.4650
160.000000 87.385 -34.3484
162.500000 87.298 -34.2328
165.000000 87.209 -34.0738
167.500000 87.135 -33.9899
170.000000 87.056 -33.8092
172.500000 86.979 -33.6437
175.000000 86.902 -33.4930
177.500000 86.826 -33.3283
180.000000 86.753 -33.1186
182.500000 86.676 -32.9356
185.000000 86.613 -32.7419
187.500000 86.536 -32.5658
190.000000 86.470 -32.3471
192.500000 86.407 -32.1656
195.000000 86.343 -31.9550
197.500000 86.283 -31.7684
200.000000 86.222 -31.5417
203.000000 86.146 -31.2531
206.000000 86.079 -30.9593
209.000000 86.017 -30.7535
212.000000 85.949 -30.4459
214.000000 85.903 -30.2459
218.000000 85.826 -29.8933
220.000000 85.782 -29.7393
224.000000 85.709 -29.3437
227.000000 85.643 -29.0553
230.000000 85.588 -28.7900
233.000000 85.541 -28.5001
236.000000 85.485 -28.1897
240.000000 85.419 -27.8108
243.000000 85.370 -27.5279
247.000000 85.299 -27.1738
250.000000 85.259 -26.8638
254.000000 85.199 -26.4994
258.000000 85.135 -26.0951
262.000000 85.070 -25.6879
265.000000 85.034 -25.3842
269.000000 84.993 -25.0474
272.000000 84.948 -24.7481
276.000000 84.899 -24.4192
280.000000 84.840 -23.9627
285.000000 84.782 -23.5524
290.000000 84.727 -23.0453
295.000000 84.667 -22.6127
300.000000 84.614 -22.1138
304.000000 84.574 -21.6996
307.000000 84.540 -21.4740
311.000000 84.509 -21.1434
315.000000 84.466 -20.7409
320.000000 84.427 -20.2781
325.000000 84.370 -19.8168
330.000000 84.338 -19.4020
335.000000 84.291 -18.9654
340.000000 84.247 -18.5007
345.000000 84.212 -18.0868
350.000000 84.168 -17.5415
355.000000 84.129 -17.2581
360.000000 84.096 -16.7345
365.000000 84.067 -16.3201
370.000000 84.037 -15.9304
375.000000 83.995 -15.3780
382.000000 83.952 -14.8563
387.000000 83.927 -14.4115
395.000000 83.869 -13.7462
400.000000 83.835 -13.2734
406.000000 83.793 -12.6929
412.000000 83.764 -12.1667
418.000000 83.729 -11.5697
425.000000 83.697 -10.7883
431.000000 83.674 -10.1148
437.000000 83.670 -9.4955
444.000000 83.687 -8.7728
450.000000 83.702 -8.2135
455.000000 83.729 -7.7619
462.000000 83.744 -7.3803
468.000000 83.736 -7.1264
475.000000 83.729 -6.7106
482.000000 83.727 -6.4312
487.000000 83.710 -6.1282
494.000000 83.700 -5.6534
500.000000 83.685 -5.3200
508.000000 83.654 -4.8856
515.000000 83.650 -4.3831
522.000000 83.637 -3.8107
530.000000 83.619 -3.2926
538.000000 83.632 -2.6907
545.000000 83.642 -2.3136
552.000000 83.650 -2.0484
560.000000 83.655 -1.7374
570.000000 83.597 -1.3802
580.000000 83.538 -0.6529
590.000000 83.492 0.1594
600.000000 83.472 0.9170
608.000000 83.470 1.5689
615.000000 83.482 2.0554
622.000000 83.488 2.4736
630.000000 83.489 3.1205
640.000000 83.511 3.7472
650.000000 83.503 4.2494
660.000000 83.502 4.9514
670.000000 83.512 5.5634
680.000000 83.505 6.2664
690.000000 83.522 6.8804
700.000000 83.528 7.5231
710.000000 83.534 8.1242
720.000000 83.565 8.8652
730.000000 83.568 9.4459
740.000000 83.587 10.1279
750.000000 83.595 10.7326
762.000000 83.623 11.5676
775.000000 83.657 12.3841
788.000000 83.686 13.1704
800.000000 83.726 13.9528
812.000000 83.766 14.7344
825.000000 83.818 15.5288
838.000000 83.864 16.4014
850.000000 83.905 17.0014
862.000000 83.962 17.7726
875.000000 84.037 18.4832
885.000000 84.093 19.0452
900.000000 84.174 19.9036
912.000000 84.243 20.5933
925.000000 84.323 21.2374
938.000000 84.397 21.9606
950.000000 84.477 22.5574
962.000000 84.564 23.1266
975.000000 84.641 23.6118
988.000000 84.738 24.2023
1000.000000 84.784 24.4894
1015.000000 84.933 25.2186
1030.000000 85.039 25.6773
1044.000000 85.138 26.1271
1060.000000 85.246 26.5698
1075.000000 85.359 27.0233
1090.000000 85.472 27.3442
1106.000000 85.585 27.6306
1120.000000 85.687 27.8891
1138.000000 85.822 28.2740
1150.000000 85.907 28.4652
1172.000000 86.052 28.6454
1180.000000 86.101 28.7526
1206.000000 86.258 29.0039
1220.000000 86.349 29.0990
1241.000000 86.471 29.2126
1250.000000 86.512 29.2586
1265.000000 86.592 29.3790
1280.000000 86.681 29.4801
1315.000000 86.857 29.5709
1320.000000 86.888 29.5943
1340.000000 86.996 29.6933
1360.000000 87.081 29.6751
1380.000000 87.177 29.7359
1400.000000 87.272 29.7264
1430.000000 87.394 29.7280
1450.000000 87.493 29.7429
1475.000000 87.592 29.7513
1500.000000 87.695 29.7657
1525.000000 87.798 29.7143
1550.000000 87.890 29.7241
1575.000000 88.000 29.7121
1600.000000 88.085 29.6447
1625.000000 88.192 29.6690
1650.000000 88.278 29.5264
1675.000000 88.370 29.5040
1700.000000 88.458 29.3622
1725.000000 88.560 29.2833
1750.000000 88.646 29.1848
1775.000000 88.747 29.0940
1800.000000 88.834 28.9582
1825.000000 88.923 28.8131
1850.000000 89.007 28.6804
1875.000000 89.106 28.4468
1900.000000 89.190 28.1183
1925.000000 89.270 27.9786
1950.000000 89.351 27.7456
1975.000000 89.430 27.3984
2000.000000 89.495 27.2950
2030.000000 89.603 26.7663
2060.000000 89.699 26.3581
2090.000000 89.792 25.9856
2120.000000 89.870 25.5259
2140.000000 89.927 25.2060
2180.000000 90.030 24.5799
2200.000000 90.082 24.1918
2240.000000 90.171 23.5664
2270.000000 90.230 23.0874
2300.000000 90.283 22.5983
2330.000000 90.334 22.0049
2360.000000 90.384 21.4479
2400.000000 90.442 20.7425
2430.000000 90.494 20.1292
2470.000000 90.549 19.4994
2500.000000 90.586 18.9309
2540.000000 90.649 18.1882
2580.000000 90.712 17.4021
2620.000000 90.759 16.5828
2650.000000 90.804 15.9329
2690.000000 90.847 14.9471
2720.000000 90.880 14.1748
2760.000000 90.888 13.0854
2800.000000 90.878 11.9141
2850.000000 90.820 10.5612
2900.000000 90.731 9.4699
2950.000000 90.620 8.6180
3000.000000 90.528 8.1046
3040.000000 90.444 7.6595
3070.000000 90.393 7.5009
3110.000000 90.351 7.3600
3150.000000 90.310 7.2520
3200.000000 90.264 7.1600
3250.000000 90.240 7.0311
3300.000000 90.227 7.0083
3350.000000 90.237 6.9619
3400.000000 90.260 6.8549
3450.000000 90.289 6.7299
3500.000000 90.337 6.4856
3550.000000 90.381 6.2304
3600.000000 90.444 5.8974
3650.000000 90.510 5.4481
3700.000000 90.566 4.9555
3750.000000 90.619 4.3792
3820.000000 90.692 3.4706
3870.000000 90.740 2.6684
3950.000000 90.791 1.3636
4000.000000 90.816 0.3797
4060.000000 90.819 -0.5762
4120.000000 90.835 -1.7059
4180.000000 90.817 -2.4575
4250.000000 90.950 -3.9830
4310.000000 90.922 -5.8086
4370.000000 90.874 -7.4418
4440.000000 90.779 -9.3364
4500.000000 90.672 -10.8807
4550.000000 90.549 -12.2651
4620.000000 90.350 -13.9195
4680.000000 90.145 -15.3043
4750.000000 89.878 -16.5576
4820.000000 89.576 -17.6693
4870.000000 89.360 -18.2381
4940.000000 89.041 -18.7517
5000.000000 88.776 -18.8277
5080.000000 88.384 -18.8136
5150.000000 88.045 -18.4727
5220.000000 87.741 -17.8332
5300.000000 87.421 -16.9004
5380.000000 87.121 -15.4619
5450.000000 86.909 -14.1721
5520.000000 86.692 -12.8332
5600.000000 86.487 -10.9397
5700.000000 86.294 -8.6002
5800.000000 86.157 -6.0969
5900.000000 86.102 -3.4469
6000.000000 86.123 -0.9755
6080.000000 86.131 0.6839
6150.000000 86.160 2.2196
6220.000000 86.246 3.6464
6300.000000 86.351 5.2297
6400.000000 86.488 6.8994
6500.000000 86.673 8.3658
6600.000000 86.844 9.4590
6700.000000 87.035 10.3896
6800.000000 87.235 11.2588
6900.000000 87.418 11.9716
7000.000000 87.638 12.4370
7100.000000 87.872 12.8542
7200.000000 88.119 13.1367
7300.000000 88.408 13.1507
7400.000000 88.717 12.5889
7500.000000 89.040 11.5264
7620.000000 89.438 9.5157
7750.000000 89.785 6.0239
7880.000000 90.030 1.2110
8000.000000 90.029 -3.9491
8120.000000 89.791 -9.3197
8250.000000 89.243 -14.5607
8380.000000 88.475 -18.4480
8500.000000 87.713 -20.7625
8620.000000 86.886 -21.7747
8750.000000 86.028 -21.5318
8850.000000 85.414 -20.6912
9000.000000 84.590 -18.2747
9120.000000 84.037 -15.6978
9250.000000 83.566 -12.6115
9380.000000 83.176 -8.9031
9500.000000 82.957 -5.6815
9620.000000 82.847 -2.1957
9750.000000 82.805 1.7291
9880.000000 82.959 5.3315
10000.000000 83.259 7.9260
10150.000000 83.740 10.1206
10300.000000 84.335 10.5877
10440.000000 84.935 8.7650
10600.000000 85.311 2.9633
10750.000000 84.969 -3.3649
10900.000000 84.029 -7.9667
11060.000000 82.752 -8.3748
11200.000000 81.726 -5.1144
11380.000000 80.826 2.1628
11500.000000 80.511 7.7035
11720.000000 80.597 18.1933
11800.000000 80.790 21.1515
12060.000000 81.915 29.2006
12200.000000 82.593 30.9245
12410.000000 83.736 29.8708
12500.000000 84.137 28.3365
12650.000000 84.505 24.4327
12800.000000 84.578 19.9336
13150.000000 83.606 12.8099
13200.000000 83.449 12.3349
13400.000000 82.691 12.6375
13600.000000 82.006 14.3926
13800.000000 81.513 17.5376
14000.000000 81.199 21.4912
14300.000000 81.192 27.8124
14500.000000 81.493 31.9721
14750.000000 82.279 35.9544
15000.000000 83.500 36.9528
15250.000000 84.943 33.2538
15500.000000 86.240 24.0485
15750.000000 86.983 11.8039
16000.000000 87.412 -2.7776
16250.000000 87.021 -21.2721
16500.000000 84.721 -44.4403
16750.000000 83.336 -32.6552
17000.000000 85.227 -41.6064
17250.000000 86.372 -83.2995
17500.000000 80.322 -123.3881
17750.000000 73.954 -132.2085
18000.000000 68.848 -131.3092
18250.000000 64.058 -127.0205
18500.000000 60.030 -126.7263
18750.000000 55.793 -123.0945
19000.000000 51.988 -111.2541
19250.000000 48.039 -115.1238
19500.000000 41.582 -170.2832
19750.000000 36.339 -137.0193
