* Measurement data measured by REW V5.31.1
* Source: Microphone (5- USB Sound Device        ), MICROPHONE (Master Volume), L, volume: 0.250
* Format: 256k Log Swept Sine, 1 sweep at -20.0 dBFS with no timing reference
* Dated: Jul 1, 2025 11:40:53 AM
* REW Settings:
*  C-weighting compensation: Off
*  Target level: 75.0 dB
* Note: 
* Measurement: L MK4 2 782
* Smoothing: None
* Frequency Step: 1/48 octave
* Start Frequency: 20.300 Hz
*
* Freq(Hz) SPL(dB) Phase(degrees)
20.299999 88.768 11.7063
20.600000 88.777 11.1142
20.900000 88.778 10.5693
21.200001 88.774 10.0180
21.400000 88.770 9.6486
21.799999 88.762 8.9129
22.000000 88.758 8.5502
22.400000 88.753 7.8387
22.700001 88.753 7.3150
23.000000 88.754 6.7970
23.299999 88.754 6.2887
23.600000 88.752 5.7991
24.000000 88.745 5.1898
24.299999 88.737 4.7668
24.700001 88.727 4.2259
25.000000 88.721 3.8099
25.400000 88.710 3.2137
25.799999 88.694 2.5811
26.200001 88.674 1.9668
26.500000 88.662 1.5490
26.900000 88.657 1.0502
27.200001 88.661 0.6919
27.600000 88.671 0.1931
28.000000 88.667 -0.3245
28.500000 88.624 -0.8690
29.000000 88.561 -1.1547
29.500000 88.525 -1.3026
30.000000 88.537 -1.7100
30.400000 88.558 -2.3950
30.700001 88.562 -3.0754
31.100000 88.542 -4.0114
31.500000 88.501 -4.7820
32.000000 88.456 -5.3865
32.500000 88.441 -5.7626
33.000000 88.439 -6.1798
33.500000 88.419 -6.6926
34.000000 88.376 -7.1998
34.500000 88.333 -7.6681
35.000000 88.303 -8.1673
35.500000 88.278 -8.7180
36.000000 88.251 -9.2302
36.500000 88.227 -9.6402
37.000000 88.213 -10.0124
37.500000 88.198 -10.4511
38.200001 88.151 -11.1867
38.700001 88.096 -11.7134
39.500000 88.004 -12.4840
40.000000 87.953 -12.8875
40.599998 87.912 -13.2239
41.200001 87.910 -13.4743
41.799999 87.926 -13.8336
42.500000 87.915 -14.4252
43.099998 87.871 -14.9357
43.700001 87.818 -15.4748
44.400002 87.747 -16.2008
45.000000 87.684 -16.7221
45.500000 87.653 -17.0123
46.200001 87.652 -17.4601
46.799999 87.633 -18.0041
47.500000 87.557 -18.4552
48.200001 87.490 -18.6237
48.700001 87.463 -18.8248
49.400002 87.416 -19.2900
50.000000 87.371 -19.6396
50.799999 87.339 -20.1382
51.500000 87.296 -20.7139
52.200001 87.230 -21.1066
53.000000 87.187 -21.4668
53.799999 87.145 -22.0746
54.500000 87.090 -22.5356
55.200001 87.044 -22.8883
56.000000 86.985 -23.2621
57.000000 86.915 -23.6004
58.000000 86.845 -24.0828
59.000000 86.772 -24.4148
60.000000 86.718 -24.9792
60.799999 86.635 -25.5087
61.500000 86.561 -25.7722
62.200001 86.517 -25.9139
63.000000 86.494 -26.2271
64.000000 86.394 -26.8082
65.000000 86.314 -26.8716
66.000000 86.272 -27.6809
67.000000 86.112 -27.7588
68.000000 86.153 -27.9148
69.000000 85.995 -28.9025
70.000000 85.924 -28.3649
71.000000 85.931 -29.4249
72.000000 85.747 -29.4679
73.000000 85.777 -29.5818
74.000000 85.625 -30.3633
75.000000 85.569 -29.8960
76.199997 85.532 -30.8771
77.500000 85.350 -30.6300
78.800003 85.362 -31.3466
80.000000 85.176 -31.6671
81.199997 85.098 -31.1572
82.500000 85.043 -32.0075
83.800003 84.846 -32.4686
85.000000 84.800 -31.8830
86.199997 84.820 -32.4766
87.500000 84.645 -33.1624
88.500000 84.563 -32.6109
90.000000 84.559 -33.2074
91.199997 84.396 -33.6501
92.500000 84.291 -33.2954
93.800003 84.249 -33.3393
95.000000 84.136 -33.7976
96.199997 84.065 -33.7353
97.500000 83.983 -33.8650
98.800003 83.926 -33.7150
100.000000 83.873 -34.0241
101.500000 83.708 -34.1820
103.000000 83.569 -33.9594
104.400002 83.540 -33.6505
106.000000 83.525 -33.8670
107.500000 83.425 -34.5813
109.000000 83.244 -35.1221
110.599998 83.078 -34.2876
112.000000 82.999 -33.6449
113.800003 83.033 -33.5757
115.000000 82.972 -33.5590
117.199997 82.810 -33.9462
118.000000 82.809 -33.8131
120.599998 82.601 -32.9567
122.000000 82.490 -34.4026
124.099998 82.449 -33.9394
125.000000 82.365 -33.5591
126.500000 82.332 -33.2514
128.000000 82.218 -32.8130
131.500000 81.999 -32.8910
132.000000 82.015 -32.8746
134.000000 81.974 -32.6891
136.000000 81.881 -32.3699
138.000000 81.768 -32.1204
140.000000 81.642 -32.1551
143.000000 81.602 -31.5699
145.000000 81.492 -31.4991
147.500000 81.418 -31.2065
150.000000 81.331 -30.7593
152.500000 81.217 -30.6915
155.000000 81.152 -30.2215
157.500000 81.089 -30.1087
160.000000 81.049 -29.5293
162.500000 80.938 -29.1803
165.000000 80.876 -29.1013
167.500000 80.831 -28.5019
170.000000 80.753 -28.5892
172.500000 80.730 -27.7881
175.000000 80.635 -28.0780
177.500000 80.561 -26.9658
180.000000 80.588 -27.2577
182.500000 80.407 -26.2918
185.000000 80.463 -26.1103
187.500000 80.332 -26.1208
190.000000 80.365 -25.2723
192.500000 80.300 -25.6148
195.000000 80.229 -24.5937
197.500000 80.279 -24.7884
200.000000 80.140 -24.5534
203.000000 80.157 -23.8688
206.000000 80.125 -23.9249
209.000000 80.040 -23.6356
212.000000 80.015 -23.0142
214.000000 80.009 -22.7808
218.000000 79.951 -22.4919
220.000000 79.977 -22.2961
224.000000 79.897 -21.9146
227.000000 79.881 -21.6483
230.000000 79.845 -21.2835
233.000000 79.830 -21.0530
236.000000 79.788 -20.9046
240.000000 79.766 -20.4362
243.000000 79.738 -20.1711
247.000000 79.747 -19.7896
250.000000 79.681 -19.6276
254.000000 79.655 -19.2680
258.000000 79.632 -18.9996
262.000000 79.593 -18.3322
265.000000 79.575 -18.4367
269.000000 79.549 -18.1195
272.000000 79.537 -17.7834
276.000000 79.525 -17.5189
280.000000 79.475 -17.4388
285.000000 79.492 -16.9668
290.000000 79.455 -16.4899
295.000000 79.436 -16.2391
300.000000 79.424 -15.5710
304.000000 79.439 -15.9108
307.000000 79.439 -15.5098
311.000000 79.412 -15.1521
315.000000 79.441 -15.2153
320.000000 79.410 -14.8583
325.000000 79.410 -14.7268
330.000000 79.400 -14.6552
335.000000 79.392 -14.3511
340.000000 79.364 -14.3482
345.000000 79.356 -14.1779
350.000000 79.331 -13.9433
355.000000 79.284 -13.8518
360.000000 79.271 -13.8380
365.000000 79.263 -13.5886
370.000000 79.249 -13.4228
375.000000 79.222 -13.2617
382.000000 79.194 -13.0614
387.000000 79.197 -12.8723
395.000000 79.150 -12.5459
400.000000 79.117 -12.3823
406.000000 79.111 -12.2206
412.000000 79.093 -11.9741
418.000000 79.070 -11.8533
425.000000 79.053 -11.7543
431.000000 79.011 -11.6409
437.000000 78.978 -11.3669
444.000000 78.961 -11.1824
450.000000 78.940 -11.0668
455.000000 78.908 -10.8943
462.000000 78.876 -10.7348
468.000000 78.860 -10.5351
475.000000 78.834 -10.3033
482.000000 78.792 -10.0815
487.000000 78.793 -9.9581
494.000000 78.752 -9.8640
500.000000 78.739 -9.4654
508.000000 78.669 -9.2920
515.000000 78.651 -9.0733
522.000000 78.622 -8.7965
530.000000 78.596 -8.3493
538.000000 78.563 -8.1192
545.000000 78.564 -8.1298
552.000000 78.470 -7.9421
560.000000 78.426 -7.6769
570.000000 78.452 -7.1542
580.000000 78.374 -6.8990
590.000000 78.403 -6.3202
600.000000 78.321 -6.0605
608.000000 78.315 -5.7929
615.000000 78.282 -5.5753
622.000000 78.269 -5.0203
630.000000 78.255 -5.0283
640.000000 78.260 -4.4671
650.000000 78.148 -3.8858
660.000000 78.144 -3.8394
670.000000 78.116 -3.2735
680.000000 78.088 -2.9753
690.000000 78.057 -2.3421
700.000000 78.042 -1.7951
710.000000 78.039 -1.2744
720.000000 78.008 -1.0399
730.000000 77.980 -0.5845
740.000000 78.011 -0.0563
750.000000 77.965 0.5977
762.000000 77.958 0.9686
775.000000 77.934 1.7268
788.000000 77.941 2.2118
800.000000 77.931 2.9813
812.000000 77.944 3.5138
825.000000 77.929 4.1788
838.000000 77.954 4.7908
850.000000 77.962 5.5270
862.000000 77.994 6.1110
875.000000 77.982 6.6175
885.000000 78.012 7.1648
900.000000 78.044 7.9989
912.000000 78.075 8.4883
925.000000 78.118 9.1405
938.000000 78.180 9.5895
950.000000 78.221 10.3005
962.000000 78.260 10.7993
975.000000 78.323 11.2339
988.000000 78.380 11.7796
1000.000000 78.433 11.6327
1015.000000 78.498 12.6296
1030.000000 78.577 13.2150
1044.000000 78.667 13.6260
1060.000000 78.741 14.2715
1075.000000 78.818 14.3957
1090.000000 78.892 14.8014
1106.000000 78.983 15.1392
1120.000000 79.057 15.3025
1138.000000 79.134 15.6734
1150.000000 79.219 15.5139
1172.000000 79.270 16.0330
1180.000000 79.336 16.1829
1206.000000 79.458 16.5740
1220.000000 79.521 16.5768
1241.000000 79.587 16.6788
1250.000000 79.622 16.7415
1265.000000 79.662 16.8937
1280.000000 79.714 16.9992
1315.000000 79.871 17.2313
1320.000000 79.883 17.3521
1340.000000 79.917 17.4012
1360.000000 79.991 17.6947
1380.000000 80.064 17.7708
1400.000000 80.128 17.9257
1430.000000 80.225 18.1290
1450.000000 80.253 18.3141
1475.000000 80.362 18.5797
1500.000000 80.444 18.8840
1525.000000 80.524 19.2293
1550.000000 80.607 19.1699
1575.000000 80.690 19.5146
1600.000000 80.787 19.8665
1625.000000 80.886 20.1397
1650.000000 80.958 20.2518
1675.000000 81.100 20.4712
1700.000000 81.187 20.6644
1725.000000 81.301 20.8445
1750.000000 81.409 21.0909
1775.000000 81.536 21.1636
1800.000000 81.664 21.3418
1825.000000 81.777 21.4766
1850.000000 81.917 21.5834
1875.000000 82.029 21.5783
1900.000000 82.193 21.6461
1925.000000 82.321 21.6139
1950.000000 82.458 21.3941
1975.000000 82.603 21.3121
2000.000000 82.710 21.0464
2030.000000 82.921 20.9367
2060.000000 83.108 20.6512
2090.000000 83.268 20.1877
2120.000000 83.443 19.7621
2140.000000 83.570 19.5043
2180.000000 83.782 18.5770
2200.000000 83.907 18.1782
2240.000000 84.136 17.1573
2270.000000 84.282 16.3293
2300.000000 84.441 15.4019
2330.000000 84.572 14.3616
2360.000000 84.708 13.4010
2400.000000 84.862 11.9724
2430.000000 84.992 10.8361
2470.000000 85.112 9.2528
2500.000000 85.198 7.9933
2540.000000 85.278 6.2646
2580.000000 85.371 4.5061
2620.000000 85.405 2.7765
2650.000000 85.433 1.5444
2690.000000 85.433 -0.1295
2720.000000 85.432 -1.2831
2760.000000 85.403 -2.8636
2800.000000 85.371 -4.3570
2850.000000 85.309 -6.1217
2900.000000 85.210 -7.7993
2950.000000 85.118 -9.2302
3000.000000 85.043 -10.9526
3040.000000 84.918 -11.5256
3070.000000 84.847 -12.2466
3110.000000 84.754 -13.1712
3150.000000 84.650 -13.8737
3200.000000 84.528 -14.6669
3250.000000 84.393 -15.4239
3300.000000 84.282 -15.9747
3350.000000 84.165 -16.5460
3400.000000 84.094 -16.9335
3450.000000 83.998 -17.4941
3500.000000 83.913 -17.8458
3550.000000 83.846 -18.2147
3600.000000 83.795 -18.6636
3650.000000 83.745 -19.1359
3700.000000 83.674 -19.4664
3750.000000 83.630 -19.9668
3820.000000 83.580 -20.7603
3870.000000 83.534 -21.2276
3950.000000 83.465 -22.1475
4000.000000 83.355 -22.9574
4060.000000 83.318 -23.8441
4120.000000 83.212 -24.7993
4180.000000 83.068 -25.5338
4250.000000 82.886 -26.4257
4310.000000 82.722 -26.9699
4370.000000 82.544 -27.3522
4440.000000 82.319 -27.4350
4500.000000 82.185 -27.2448
4550.000000 82.040 -27.0275
4620.000000 81.890 -26.3847
4680.000000 81.851 -25.9434
4750.000000 81.799 -25.5231
4820.000000 81.783 -25.1080
4870.000000 81.774 -25.1734
4940.000000 81.780 -25.3034
5000.000000 81.792 -25.3522
5080.000000 81.762 -26.0624
5150.000000 81.753 -26.5102
5220.000000 81.672 -26.9523
5300.000000 81.577 -27.6089
5380.000000 81.459 -28.2391
5450.000000 81.356 -28.6390
5520.000000 81.224 -29.0087
5600.000000 81.113 -29.5553
5700.000000 80.885 -29.7500
5800.000000 80.699 -29.8617
5900.000000 80.489 -29.7986
6000.000000 80.254 -29.1453
6080.000000 80.072 -29.0838
6150.000000 79.991 -28.8768
6220.000000 79.876 -28.2606
6300.000000 79.714 -27.6351
6400.000000 79.603 -26.8772
6500.000000 79.495 -25.7678
6600.000000 79.409 -24.5021
6700.000000 79.361 -23.6544
6800.000000 79.345 -22.3926
6900.000000 79.392 -21.3078
7000.000000 79.464 -20.3227
7100.000000 79.545 -19.4582
7200.000000 79.597 -18.5517
7300.000000 79.777 -17.7930
7400.000000 79.943 -17.1841
7500.000000 80.113 -16.7447
7620.000000 80.351 -16.7528
7750.000000 80.630 -16.5174
7880.000000 80.938 -16.2757
8000.000000 81.477 -16.3937
8120.000000 82.027 -16.6997
8250.000000 82.781 -19.2795
8380.000000 83.440 -24.4703
8500.000000 83.801 -30.8690
8620.000000 83.792 -37.8742
8750.000000 83.421 -44.8231
8850.000000 82.921 -49.3765
9000.000000 82.073 -53.1384
9120.000000 81.332 -55.1802
9250.000000 80.644 -55.8169
9380.000000 79.998 -55.5058
9500.000000 79.471 -54.2071
9620.000000 79.012 -52.3984
9750.000000 78.624 -50.4844
9880.000000 78.338 -47.6270
10000.000000 78.171 -45.3404
10150.000000 78.046 -41.8468
10300.000000 77.972 -38.4309
10440.000000 78.005 -35.9778
10600.000000 78.173 -32.6288
10750.000000 78.339 -30.0224
10900.000000 78.599 -27.6039
11060.000000 78.956 -25.8920
11200.000000 79.178 -24.0302
11380.000000 79.444 -22.5382
11500.000000 79.575 -22.1447
11720.000000 79.855 -20.8062
11800.000000 79.931 -20.4302
12060.000000 79.951 -18.9285
12200.000000 79.960 -17.9752
12410.000000 79.945 -16.6131
12500.000000 79.906 -15.8698
12650.000000 79.773 -14.2336
12800.000000 79.691 -12.3487
13150.000000 79.452 -7.6891
13200.000000 79.406 -6.5851
13400.000000 79.562 -4.1992
13600.000000 79.649 -2.8080
13800.000000 79.609 -2.2926
14000.000000 79.152 -3.0702
14300.000000 77.861 -0.7201
14500.000000 76.984 3.2791
14750.000000 76.004 12.1466
15000.000000 75.525 22.5897
15250.000000 75.627 32.7936
15500.000000 75.986 42.3314
15750.000000 76.797 49.2682
16000.000000 77.969 52.5839
16250.000000 78.407 56.3890
16500.000000 80.069 50.3810
16750.000000 79.339 38.9502
17000.000000 77.590 42.1271
17250.000000 77.521 32.2988
17500.000000 74.151 35.7206
17750.000000 72.364 50.5557
18000.000000 71.604 62.9382
18250.000000 71.351 74.6693
18500.000000 71.074 82.5768
18750.000000 71.018 90.3566
19000.000000 70.860 95.8056
19250.000000 70.732 97.6091
19500.000000 69.745 97.6816
19750.000000 68.152 96.7848
