* Measurement data measured by REW V5.31.1
* Source: Microphone (5- USB Sound Device        ), MICROPHONE (Master Volume), L, volume: 0.250
* Format: 256k Log Swept Sine, 1 sweep at -20.0 dBFS with no timing reference
* Dated: Jul 1, 2025 11:48:49 AM
* REW Settings:
*  C-weighting compensation: Off
*  Target level: 75.0 dB
* Note: 
* Measurement: R MK4 2 787
* Smoothing: None
* Frequency Step: 1/48 octave
* Start Frequency: 20.300 Hz
*
* Freq(Hz) SPL(dB) Phase(degrees)
20.299999 88.731 11.4925
20.600000 88.737 10.9380
20.900000 88.739 10.4248
21.200001 88.741 9.8924
21.400000 88.742 9.5255
21.799999 88.745 8.7740
22.000000 88.746 8.3977
22.400000 88.746 7.6646
22.700001 88.745 7.1429
23.000000 88.743 6.6474
23.299999 88.741 6.1713
23.600000 88.737 5.7070
24.000000 88.729 5.0968
24.299999 88.719 4.6442
24.700001 88.704 4.0517
25.000000 88.693 3.6190
25.400000 88.679 3.0574
25.799999 88.670 2.5042
26.200001 88.665 1.9468
26.500000 88.662 1.5219
26.900000 88.658 0.9480
27.200001 88.652 0.5178
27.600000 88.641 -0.0462
28.000000 88.626 -0.5901
28.500000 88.604 -1.2351
29.000000 88.580 -1.8448
29.500000 88.557 -2.4318
30.000000 88.535 -3.0137
30.400000 88.517 -3.4834
30.700001 88.503 -3.8382
31.100000 88.485 -4.3106
31.500000 88.467 -4.7776
32.000000 88.445 -5.3508
32.500000 88.425 -5.9131
33.000000 88.403 -6.4593
33.500000 88.378 -6.9768
34.000000 88.350 -7.4601
34.500000 88.321 -7.9255
35.000000 88.293 -8.3974
35.500000 88.265 -8.8850
36.000000 88.235 -9.3761
36.500000 88.208 -9.8568
37.000000 88.184 -10.3234
37.500000 88.161 -10.7732
38.200001 88.126 -11.3541
38.700001 88.097 -11.7337
39.500000 88.041 -12.3413
40.000000 87.998 -12.7366
40.599998 87.945 -13.2001
41.200001 87.901 -13.6488
41.799999 87.867 -14.1320
42.500000 87.824 -14.7834
43.099998 87.781 -15.4021
43.700001 87.748 -16.0565
44.400002 87.745 -16.7918
45.000000 87.772 -17.2538
45.500000 87.798 -17.4376
46.200001 87.796 -17.4289
46.799999 87.720 -17.3416
47.500000 87.558 -17.4645
48.200001 87.394 -18.1247
48.700001 87.322 -18.9027
49.400002 87.303 -20.0103
50.000000 87.333 -20.5777
50.799999 87.357 -20.6951
51.500000 87.320 -20.6634
52.200001 87.251 -21.0534
53.000000 87.173 -22.0461
53.799999 87.117 -22.7734
54.500000 87.090 -22.7953
55.200001 87.059 -22.7073
56.000000 86.971 -23.0235
57.000000 86.848 -23.8333
58.000000 86.797 -24.5278
59.000000 86.736 -24.8600
60.000000 86.642 -25.1708
60.799999 86.576 -25.6030
61.500000 86.535 -25.9931
62.200001 86.497 -26.2986
63.000000 86.437 -26.5605
64.000000 86.350 -26.8929
65.000000 86.279 -27.3241
66.000000 86.215 -27.7708
67.000000 86.142 -28.1196
68.000000 86.065 -28.4582
69.000000 85.982 -28.8020
70.000000 85.907 -29.1110
71.000000 85.833 -29.4285
72.000000 85.754 -29.7099
73.000000 85.677 -30.0035
74.000000 85.607 -30.2858
75.000000 85.540 -30.5372
76.199997 85.443 -30.8541
77.500000 85.340 -31.2492
78.800003 85.253 -31.5794
80.000000 85.167 -31.7772
81.199997 85.076 -32.0202
82.500000 84.979 -32.3272
83.800003 84.895 -32.5406
85.000000 84.802 -32.7528
86.199997 84.710 -32.8494
87.500000 84.630 -33.0856
88.500000 84.542 -33.2675
90.000000 84.445 -33.3083
91.199997 84.358 -33.7156
92.500000 84.254 -33.8121
93.800003 84.198 -33.8106
95.000000 84.109 -33.8422
96.199997 84.005 -33.8741
97.500000 83.939 -34.2174
98.800003 83.841 -34.2651
100.000000 83.782 -34.1269
101.500000 83.679 -34.2050
103.000000 83.577 -34.4173
104.400002 83.521 -34.3371
106.000000 83.395 -34.3006
107.500000 83.310 -34.5222
109.000000 83.216 -34.2270
110.599998 83.120 -34.3982
112.000000 83.030 -34.4364
113.800003 82.930 -34.4099
115.000000 82.870 -34.2769
117.199997 82.738 -34.1960
118.000000 82.713 -34.1379
120.599998 82.542 -33.8764
122.000000 82.477 -34.1726
124.099998 82.379 -33.8075
125.000000 82.311 -33.7318
126.500000 82.256 -33.6236
128.000000 82.197 -33.4936
131.500000 82.049 -33.1513
132.000000 82.016 -33.2010
134.000000 81.909 -32.9783
136.000000 81.821 -32.9020
138.000000 81.741 -32.4846
140.000000 81.601 -32.3369
143.000000 81.534 -31.9780
145.000000 81.451 -31.8510
147.500000 81.363 -31.5368
150.000000 81.264 -31.1480
152.500000 81.171 -30.9728
155.000000 81.117 -30.6737
157.500000 81.045 -30.2436
160.000000 80.951 -29.8944
162.500000 80.884 -29.5888
165.000000 80.805 -29.1962
167.500000 80.750 -28.9386
170.000000 80.684 -28.6719
172.500000 80.617 -28.2206
175.000000 80.567 -27.9981
177.500000 80.520 -27.6747
180.000000 80.471 -27.3546
182.500000 80.404 -26.9008
185.000000 80.354 -26.5899
187.500000 80.318 -26.2659
190.000000 80.256 -26.0685
192.500000 80.220 -25.7533
195.000000 80.156 -25.2384
197.500000 80.133 -24.9588
200.000000 80.112 -24.6362
203.000000 80.074 -24.4208
206.000000 80.042 -24.0489
209.000000 80.006 -23.6181
212.000000 79.969 -23.3264
214.000000 79.936 -23.1415
218.000000 79.896 -22.7934
220.000000 79.873 -22.4795
224.000000 79.843 -22.2016
227.000000 79.804 -21.9066
230.000000 79.797 -21.5776
233.000000 79.763 -21.3409
236.000000 79.727 -21.1213
240.000000 79.701 -20.7178
243.000000 79.701 -20.5614
247.000000 79.643 -20.1459
250.000000 79.618 -19.8826
254.000000 79.589 -19.5417
258.000000 79.565 -19.3504
262.000000 79.538 -19.0086
265.000000 79.523 -18.8615
269.000000 79.503 -18.5096
272.000000 79.478 -18.2994
276.000000 79.460 -18.0033
280.000000 79.443 -17.8768
285.000000 79.416 -17.4894
290.000000 79.370 -17.1765
295.000000 79.366 -16.8704
300.000000 79.308 -16.6075
304.000000 79.295 -16.2230
307.000000 79.292 -16.0530
311.000000 79.258 -15.7550
315.000000 79.252 -15.4898
320.000000 79.249 -15.0073
325.000000 79.226 -14.6809
330.000000 79.247 -14.3888
335.000000 79.263 -14.1399
340.000000 79.265 -14.0780
345.000000 79.256 -14.0433
350.000000 79.265 -13.9509
355.000000 79.231 -13.8731
360.000000 79.225 -13.8589
365.000000 79.210 -13.6392
370.000000 79.172 -13.5078
375.000000 79.153 -13.3803
382.000000 79.118 -13.2577
387.000000 79.108 -13.0949
395.000000 79.067 -12.8456
400.000000 79.032 -12.7624
406.000000 79.016 -12.5534
412.000000 78.994 -12.3011
418.000000 78.958 -12.1707
425.000000 78.930 -11.9911
431.000000 78.920 -11.7047
437.000000 78.885 -11.5146
444.000000 78.875 -11.3635
450.000000 78.827 -11.1995
455.000000 78.814 -11.0625
462.000000 78.786 -10.9053
468.000000 78.757 -10.5494
475.000000 78.715 -10.4545
482.000000 78.708 -10.2252
487.000000 78.672 -10.0156
494.000000 78.641 -9.8186
500.000000 78.619 -9.6215
508.000000 78.597 -9.3723
515.000000 78.546 -9.1695
522.000000 78.523 -8.8626
530.000000 78.505 -8.7151
538.000000 78.487 -8.3685
545.000000 78.444 -8.1411
552.000000 78.426 -7.8838
560.000000 78.382 -7.6540
570.000000 78.362 -7.2373
580.000000 78.327 -6.9606
590.000000 78.287 -6.5489
600.000000 78.249 -6.0481
608.000000 78.245 -5.8772
615.000000 78.202 -5.6703
622.000000 78.195 -5.4247
630.000000 78.149 -5.0472
640.000000 78.128 -4.7782
650.000000 78.092 -4.2209
660.000000 78.062 -3.8622
670.000000 78.029 -3.3665
680.000000 78.016 -2.8525
690.000000 77.978 -2.5605
700.000000 77.963 -2.1491
710.000000 77.948 -1.6310
720.000000 77.928 -1.2301
730.000000 77.919 -0.6677
740.000000 77.885 -0.1615
750.000000 77.870 0.3271
762.000000 77.860 0.7509
775.000000 77.866 1.4101
788.000000 77.843 2.0742
800.000000 77.861 2.5844
812.000000 77.875 3.2939
825.000000 77.869 3.9556
838.000000 77.867 4.5674
850.000000 77.863 5.2094
862.000000 77.877 5.9212
875.000000 77.905 6.5722
885.000000 77.944 7.1253
900.000000 77.971 7.7270
912.000000 77.999 8.2270
925.000000 78.050 8.9342
938.000000 78.083 9.4654
950.000000 78.131 10.0497
962.000000 78.171 10.4770
975.000000 78.233 10.9197
988.000000 78.278 11.6853
1000.000000 78.214 12.3164
1015.000000 78.435 12.4026
1030.000000 78.484 12.9374
1044.000000 78.559 13.3572
1060.000000 78.660 13.8216
1075.000000 78.698 14.1512
1090.000000 78.804 14.4444
1106.000000 78.880 14.7530
1120.000000 78.941 15.0106
1138.000000 79.032 15.2474
1150.000000 79.092 15.4098
1172.000000 79.196 15.7891
1180.000000 79.222 15.9330
1206.000000 79.353 16.0494
1220.000000 79.383 16.2011
1241.000000 79.477 16.4697
1250.000000 79.528 16.5755
1265.000000 79.569 16.6340
1280.000000 79.633 16.8611
1315.000000 79.758 17.1102
1320.000000 79.763 16.9769
1340.000000 79.834 17.2119
1360.000000 79.911 17.3785
1380.000000 79.944 17.5796
1400.000000 79.998 17.7023
1430.000000 80.115 18.0046
1450.000000 80.176 17.9884
1475.000000 80.257 18.3769
1500.000000 80.326 18.5822
1525.000000 80.423 18.6705
1550.000000 80.489 19.0920
1575.000000 80.590 19.4495
1600.000000 80.709 19.5178
1625.000000 80.798 19.8303
1650.000000 80.866 20.1559
1675.000000 80.986 20.3193
1700.000000 81.099 20.5400
1725.000000 81.200 20.7232
1750.000000 81.305 20.8613
1775.000000 81.418 20.9508
1800.000000 81.549 21.2097
1825.000000 81.686 21.2107
1850.000000 81.802 21.2543
1875.000000 81.934 21.4031
1900.000000 82.069 21.3355
1925.000000 82.211 21.3602
1950.000000 82.342 21.2466
1975.000000 82.494 21.1246
2000.000000 82.691 21.0628
2030.000000 82.801 20.6376
2060.000000 82.981 20.3338
2090.000000 83.157 20.0966
2120.000000 83.342 19.5828
2140.000000 83.448 19.2968
2180.000000 83.674 18.4605
2200.000000 83.783 17.9521
2240.000000 84.011 16.9952
2270.000000 84.178 16.1866
2300.000000 84.326 15.2255
2330.000000 84.474 14.3155
2360.000000 84.606 13.2197
2400.000000 84.756 11.6819
2430.000000 84.880 10.5777
2470.000000 85.016 9.0887
2500.000000 85.101 7.7790
2540.000000 85.194 6.0551
2580.000000 85.266 4.3941
2620.000000 85.316 2.6381
2650.000000 85.343 1.3906
2690.000000 85.355 -0.2361
2720.000000 85.351 -1.5821
2760.000000 85.319 -3.1062
2800.000000 85.279 -4.6137
2850.000000 85.213 -6.4415
2900.000000 85.141 -8.0459
2950.000000 85.045 -9.6298
3000.000000 84.915 -11.0938
3040.000000 84.832 -12.0228
3070.000000 84.753 -12.7013
3110.000000 84.646 -13.5111
3150.000000 84.551 -14.3216
3200.000000 84.445 -15.1747
3250.000000 84.316 -15.8650
3300.000000 84.193 -16.4560
3350.000000 84.069 -17.1321
3400.000000 83.973 -17.4003
3450.000000 83.882 -17.9173
3500.000000 83.796 -18.2459
3550.000000 83.704 -18.6839
3600.000000 83.657 -18.9775
3650.000000 83.617 -19.5478
3700.000000 83.567 -19.9180
3750.000000 83.549 -20.3355
3820.000000 83.453 -20.9956
3870.000000 83.400 -21.6444
3950.000000 83.313 -22.6359
4000.000000 83.288 -23.3739
4060.000000 83.175 -24.0048
4120.000000 83.057 -24.9414
4180.000000 82.920 -25.7357
4250.000000 82.755 -26.6126
4310.000000 82.598 -27.0373
4370.000000 82.383 -27.3182
4440.000000 82.183 -27.4608
4500.000000 82.012 -27.1551
4550.000000 81.920 -27.0218
4620.000000 81.794 -26.4601
4680.000000 81.726 -25.8684
4750.000000 81.666 -25.5484
4820.000000 81.640 -25.0176
4870.000000 81.651 -24.9002
4940.000000 81.694 -24.9934
5000.000000 81.614 -25.1031
5080.000000 81.687 -25.6956
5150.000000 81.690 -26.0574
5220.000000 81.594 -26.7086
5300.000000 81.541 -27.3023
5380.000000 81.453 -27.8199
5450.000000 81.330 -28.3462
5520.000000 81.258 -28.8940
5600.000000 81.080 -29.2080
5700.000000 80.930 -29.6993
5800.000000 80.694 -29.9063
5900.000000 80.490 -29.8878
6000.000000 80.251 -29.1894
6080.000000 80.118 -29.2514
6150.000000 80.053 -29.1813
6220.000000 79.875 -28.7749
6300.000000 79.771 -28.0895
6400.000000 79.604 -27.3607
6500.000000 79.532 -26.3493
6600.000000 79.447 -25.2948
6700.000000 79.447 -24.1798
6800.000000 79.420 -23.0775
6900.000000 79.415 -22.1701
7000.000000 79.548 -21.3512
7100.000000 79.587 -20.5205
7200.000000 79.707 -19.4653
7300.000000 79.858 -19.0800
7400.000000 80.040 -18.9240
7500.000000 80.252 -18.6603
7620.000000 80.471 -18.4191
7750.000000 80.751 -18.6042
7880.000000 81.152 -18.3568
8000.000000 81.539 -19.1388
8120.000000 82.142 -19.7311
8250.000000 82.840 -22.7749
8380.000000 83.472 -28.5216
8500.000000 83.726 -35.1815
8620.000000 83.631 -42.2578
8750.000000 83.132 -49.2069
8850.000000 82.604 -53.1940
9000.000000 81.743 -56.9557
9120.000000 80.948 -58.5506
9250.000000 80.231 -58.8833
9380.000000 79.558 -58.1299
9500.000000 79.042 -57.0772
9620.000000 78.592 -55.3996
9750.000000 78.248 -52.9515
9880.000000 77.925 -49.8907
10000.000000 77.736 -47.7417
10150.000000 77.570 -44.4156
10300.000000 77.618 -40.7303
10440.000000 77.626 -38.1998
10600.000000 77.732 -34.2863
10750.000000 77.965 -31.6702
10900.000000 78.276 -29.3477
11060.000000 78.517 -27.0238
11200.000000 78.792 -25.4934
11380.000000 79.064 -24.1320
11500.000000 79.237 -23.2679
11720.000000 79.468 -21.7361
11800.000000 79.532 -21.3556
12060.000000 79.669 -19.5264
12200.000000 79.629 -18.4872
12410.000000 79.660 -16.9506
12500.000000 79.572 -16.0221
12650.000000 79.568 -15.2670
12800.000000 79.453 -12.8992
13150.000000 79.291 -7.7117
13200.000000 79.306 -6.8995
13400.000000 79.417 -3.6009
13600.000000 79.574 -2.0042
13800.000000 79.640 -2.0477
14000.000000 79.294 -3.0120
14300.000000 78.062 -1.1595
14500.000000 77.152 2.5174
14750.000000 76.272 11.5782
15000.000000 75.809 21.0430
15250.000000 75.803 30.9763
15500.000000 76.318 41.1571
15750.000000 77.074 48.4491
16000.000000 78.370 51.7831
16250.000000 78.756 55.1139
16500.000000 80.469 48.5351
16750.000000 79.827 36.8419
17000.000000 78.192 38.8739
17250.000000 78.025 29.0026
17500.000000 74.610 31.8410
17750.000000 73.052 46.8185
18000.000000 72.274 57.9354
18250.000000 71.762 68.8337
18500.000000 71.518 78.0528
18750.000000 71.448 84.7924
19000.000000 71.175 90.3061
19250.000000 71.023 92.2404
19500.000000 69.810 91.3814
19750.000000 68.129 90.1011
