* Measurement data measured by REW V5.31.1
* Source: Microphone (USB Sound Device        ), MICROPHONE (Master Volume), L, volume: 0.250
* Format: 256k Log Swept Sine, 1 sweep at -20.0 dBFS with no timing reference
* Dated: Dec 2, 2025 12:56:43 PM
* REW Settings:
*  C-weighting compensation: Off
*  Target level: 75.0 dB
* Note: 
* Measurement: R orch 2 wide black 1129
* Smoothing: None
* Frequency Step: 1/48 octave
* Start Frequency: 20.300 Hz
*
* Freq(Hz) SPL(dB) Phase(degrees)
20.299999 127.017 -166.4073
20.600000 127.029 -166.8958
20.900000 127.030 -167.2830
21.200001 127.036 -167.6531
21.400000 127.045 -167.9180
21.799999 127.078 -168.5258
22.000000 127.099 -168.8773
22.400000 127.145 -169.6618
22.700001 127.177 -170.2819
23.000000 127.203 -170.8860
23.299999 127.222 -171.4481
23.600000 127.233 -171.9598
24.000000 127.240 -172.5680
24.299999 127.239 -172.9836
24.700001 127.233 -173.5074
25.000000 127.229 -173.8942
25.400000 127.229 -174.4233
25.799999 127.239 -174.9879
26.200001 127.259 -175.5921
26.500000 127.279 -176.0573
26.900000 127.308 -176.6642
27.200001 127.330 -177.0897
27.600000 127.358 -177.6086
28.000000 127.379 -178.0865
28.500000 127.388 -178.6569
29.000000 127.371 -179.1928
29.500000 127.336 -179.6694
30.000000 127.308 179.8627
30.400000 127.301 179.4060
30.700001 127.303 178.9836
31.100000 127.305 178.3445
31.500000 127.300 177.7166
32.000000 127.291 177.1143
32.500000 127.297 176.7395
33.000000 127.323 176.3987
33.500000 127.345 175.9167
34.000000 127.338 175.3193
34.500000 127.313 174.7311
35.000000 127.293 174.1570
35.500000 127.285 173.5090
36.000000 127.265 172.8306
36.500000 127.225 172.3259
37.000000 127.192 172.0978
37.500000 127.189 171.9477
38.200001 127.205 171.3766
38.700001 127.186 170.7831
39.500000 127.146 170.1183
40.000000 127.159 169.7513
40.599998 127.176 169.0567
41.200001 127.129 168.3402
41.799999 127.054 168.0239
42.500000 127.042 167.8400
43.099998 127.067 167.2275
43.700001 127.039 166.4456
44.400002 126.977 166.0778
45.000000 126.992 166.0700
45.500000 127.039 165.7491
46.200001 127.039 164.7458
46.799999 126.938 164.0131
47.500000 126.821 163.8113
48.200001 126.813 163.6981
48.700001 126.846 163.2514
49.400002 126.857 162.2196
50.000000 126.805 161.4737
50.799999 126.722 161.2077
51.500000 126.715 161.3100
52.200001 126.745 161.0237
53.000000 126.708 160.1852
53.799999 126.584 159.6270
54.500000 126.502 159.6179
55.200001 126.493 159.6123
56.000000 126.524 159.1316
57.000000 126.518 157.9584
58.000000 126.431 157.0599
59.000000 126.343 156.8650
60.000000 126.288 156.7839
60.799999 126.251 156.4885
61.500000 126.217 156.0368
62.200001 126.176 155.5010
63.000000 126.127 154.9218
64.000000 126.072 154.3187
65.000000 126.029 153.8763
66.000000 125.989 153.5156
67.000000 125.931 153.2101
68.000000 125.866 152.9288
69.000000 125.801 152.5722
70.000000 125.733 152.1863
71.000000 125.665 151.7965
72.000000 125.604 151.3923
73.000000 125.555 150.9839
74.000000 125.507 150.5536
75.000000 125.448 150.1208
76.199997 125.373 149.6730
77.500000 125.295 149.2560
78.800003 125.211 148.8807
80.000000 125.133 148.5735
81.199997 125.058 148.3064
82.500000 124.974 148.0095
83.800003 124.894 147.5605
85.000000 124.821 147.1224
86.199997 124.752 146.8171
87.500000 124.669 146.5862
88.500000 124.598 146.4205
90.000000 124.504 146.0535
91.199997 124.421 145.6999
92.500000 124.347 145.5034
93.800003 124.274 145.1958
95.000000 124.187 144.9354
96.199997 124.109 144.7318
97.500000 124.030 144.5098
98.800003 123.947 144.2804
100.000000 123.874 144.1018
101.500000 123.800 144.0133
103.000000 123.678 143.8765
104.400002 123.574 143.6708
106.000000 123.490 143.3997
107.500000 123.390 143.2094
109.000000 123.297 143.0778
110.599998 123.198 143.0737
112.000000 123.117 142.9774
113.800003 122.987 142.7763
115.000000 122.913 142.6933
117.199997 122.768 142.5272
118.000000 122.735 142.5350
120.599998 122.587 142.4973
122.000000 122.523 142.4152
124.099998 122.406 142.3497
125.000000 122.340 142.1976
126.500000 122.237 142.1971
128.000000 122.131 142.1587
131.500000 121.926 142.3448
132.000000 121.893 142.3761
134.000000 121.776 142.6271
136.000000 121.638 142.7078
138.000000 121.537 143.0226
140.000000 121.416 143.2049
143.000000 121.245 143.3803
145.000000 121.130 143.4556
147.500000 120.987 143.5568
150.000000 120.876 143.7174
152.500000 120.746 143.9434
155.000000 120.640 144.2196
157.500000 120.517 144.7335
160.000000 120.400 145.3002
162.500000 120.243 145.6023
165.000000 120.148 146.0224
167.500000 120.036 146.3818
170.000000 119.900 146.8604
172.500000 119.804 147.3582
175.000000 119.700 147.7524
177.500000 119.606 148.3882
180.000000 119.516 148.8175
182.500000 119.435 149.3147
185.000000 119.355 149.8661
187.500000 119.261 150.3033
190.000000 119.183 150.6866
192.500000 119.109 151.3903
195.000000 119.013 151.9658
197.500000 118.946 152.6515
200.000000 118.882 153.3314
203.000000 118.779 154.1130
206.000000 118.690 155.0290
209.000000 118.585 155.7780
212.000000 118.509 156.2915
214.000000 118.470 156.9138
218.000000 118.390 157.9824
220.000000 118.348 158.5974
224.000000 118.236 159.8111
227.000000 118.197 161.0669
230.000000 118.159 162.1379
233.000000 118.154 163.3159
236.000000 118.168 164.4008
240.000000 118.249 165.7036
243.000000 118.335 166.2720
247.000000 118.451 166.7642
250.000000 118.480 166.8709
254.000000 118.522 167.1483
258.000000 118.526 167.6394
262.000000 118.509 168.1710
265.000000 118.470 168.5861
269.000000 118.423 169.4027
272.000000 118.403 169.9169
276.000000 118.369 170.6013
280.000000 118.374 171.4260
285.000000 118.385 172.2752
290.000000 118.393 172.8765
295.000000 118.429 173.6041
300.000000 118.487 174.1522
304.000000 118.492 174.7778
307.000000 118.518 175.2732
311.000000 118.533 175.9511
315.000000 118.540 176.5482
320.000000 118.532 177.2115
325.000000 118.540 177.9036
330.000000 118.563 178.5440
335.000000 118.601 179.3370
340.000000 118.626 179.7671
345.000000 118.703 -179.8487
350.000000 118.762 -179.3558
355.000000 118.817 -178.8972
360.000000 118.884 -178.4518
365.000000 118.929 -178.0342
370.000000 118.971 -177.5636
375.000000 119.010 -177.1133
382.000000 119.039 -176.4326
387.000000 119.085 -176.1397
395.000000 119.119 -175.5224
400.000000 119.170 -175.1068
406.000000 119.192 -174.7981
412.000000 119.248 -174.3623
418.000000 119.301 -173.9640
425.000000 119.334 -173.6001
431.000000 119.373 -173.2677
437.000000 119.422 -173.0266
444.000000 119.470 -172.5294
450.000000 119.494 -172.2447
455.000000 119.528 -171.9711
462.000000 119.572 -171.6271
468.000000 119.591 -171.3699
475.000000 119.634 -171.0929
482.000000 119.690 -170.7159
487.000000 119.717 -170.5348
494.000000 119.765 -170.1600
500.000000 119.817 -169.8567
508.000000 119.835 -169.5802
515.000000 119.900 -169.1603
522.000000 119.966 -168.7980
530.000000 120.025 -168.5911
538.000000 120.084 -168.4409
545.000000 120.137 -168.3384
552.000000 120.162 -168.0964
560.000000 120.191 -167.8540
570.000000 120.223 -167.7578
580.000000 120.237 -167.4107
590.000000 120.284 -167.0300
600.000000 120.310 -166.6783
608.000000 120.352 -166.5278
615.000000 120.374 -166.3475
622.000000 120.414 -166.1533
630.000000 120.447 -165.9431
640.000000 120.516 -165.6008
650.000000 120.559 -165.4037
660.000000 120.603 -165.0693
670.000000 120.631 -164.7311
680.000000 120.659 -164.3145
690.000000 120.679 -163.9703
700.000000 120.684 -163.6593
710.000000 120.716 -163.3391
720.000000 120.743 -162.9826
730.000000 120.771 -162.6231
740.000000 120.827 -162.3237
750.000000 120.880 -161.8413
762.000000 120.955 -161.5364
775.000000 121.044 -161.1959
788.000000 121.145 -160.7869
800.000000 121.180 -160.4644
812.000000 121.243 -159.9812
825.000000 121.271 -159.5022
838.000000 121.322 -159.0199
850.000000 121.369 -158.5947
862.000000 121.434 -158.2730
875.000000 121.511 -157.8418
885.000000 121.585 -157.5940
900.000000 121.669 -157.1670
912.000000 121.776 -156.8351
925.000000 121.866 -156.5284
938.000000 121.940 -156.2357
950.000000 122.052 -155.9250
962.000000 122.117 -155.6706
975.000000 122.221 -155.4725
988.000000 122.315 -155.3004
1000.000000 122.412 -155.0390
1015.000000 122.507 -154.9661
1030.000000 122.612 -154.7286
1044.000000 122.707 -154.7121
1060.000000 122.837 -154.6991
1075.000000 122.966 -154.6953
1090.000000 123.063 -154.7872
1106.000000 123.165 -154.9205
1120.000000 123.249 -154.7998
1138.000000 123.367 -154.8992
1150.000000 123.423 -155.0998
1172.000000 123.553 -155.2185
1180.000000 123.602 -155.3114
1206.000000 123.719 -155.5915
1220.000000 123.802 -155.8275
1241.000000 123.888 -155.9158
1250.000000 123.920 -156.1496
1265.000000 123.982 -156.3125
1280.000000 124.046 -156.5077
1315.000000 124.179 -156.9505
1320.000000 124.185 -157.0378
1340.000000 124.242 -157.1572
1360.000000 124.293 -157.4217
1380.000000 124.354 -157.6468
1400.000000 124.412 -157.8062
1430.000000 124.521 -158.0489
1450.000000 124.579 -158.2475
1475.000000 124.646 -158.4918
1500.000000 124.716 -158.5709
1525.000000 124.780 -158.6669
1550.000000 124.832 -158.8719
1575.000000 124.883 -158.9908
1600.000000 124.921 -159.0687
1625.000000 124.972 -159.1920
1650.000000 125.048 -159.3003
1675.000000 125.117 -159.4113
1700.000000 125.197 -159.5360
1725.000000 125.283 -159.7133
1750.000000 125.347 -159.7431
1775.000000 125.424 -159.8123
1800.000000 125.493 -159.9960
1825.000000 125.574 -160.0759
1850.000000 125.638 -160.1628
1875.000000 125.725 -160.3101
1900.000000 125.799 -160.5089
1925.000000 125.874 -160.6576
1950.000000 125.954 -160.8245
1975.000000 126.056 -161.0820
2000.000000 126.163 -161.3237
2030.000000 126.231 -161.4891
2060.000000 126.331 -161.8481
2090.000000 126.429 -162.1706
2120.000000 126.540 -162.5067
2140.000000 126.617 -162.8043
2180.000000 126.766 -163.3723
2200.000000 126.839 -163.7272
2240.000000 126.989 -164.3576
2270.000000 127.096 -164.9482
2300.000000 127.202 -165.5283
2330.000000 127.303 -166.0803
2360.000000 127.407 -166.7633
2400.000000 127.541 -167.7184
2430.000000 127.641 -168.4876
2470.000000 127.749 -169.5797
2500.000000 127.827 -170.4274
2540.000000 127.934 -171.5572
2580.000000 128.045 -172.7864
2620.000000 128.143 -174.1369
2650.000000 128.213 -175.1090
2690.000000 128.284 -176.4825
2720.000000 128.343 -177.5880
2760.000000 128.399 -179.0849
2800.000000 128.445 179.4432
2850.000000 128.492 177.4825
2900.000000 128.519 175.5034
2950.000000 128.525 173.6144
3000.000000 128.503 171.5768
3040.000000 128.476 169.9890
3070.000000 128.442 168.8298
3110.000000 128.380 167.2054
3150.000000 128.318 165.5431
3200.000000 128.225 163.4786
3250.000000 128.116 161.4779
3300.000000 127.959 159.4608
3350.000000 127.752 157.5396
3400.000000 127.499 155.9258
3450.000000 127.221 154.7006
3500.000000 126.926 153.9149
3550.000000 126.666 153.5546
3600.000000 126.471 153.4451
3650.000000 126.322 153.3321
3700.000000 126.178 153.4574
3750.000000 126.092 153.3135
3820.000000 125.976 153.1794
3870.000000 125.918 152.8506
3950.000000 125.821 152.3611
4000.000000 125.741 152.1696
4060.000000 125.714 151.4663
4120.000000 125.686 150.9624
4180.000000 125.682 150.2057
4250.000000 125.664 149.3480
4310.000000 125.641 148.5646
4370.000000 125.620 147.7070
4440.000000 125.642 146.4936
4500.000000 125.613 145.2803
4550.000000 125.597 144.3678
4620.000000 125.588 142.5392
4680.000000 125.591 141.1762
4750.000000 125.552 139.3384
4820.000000 125.513 137.2603
4870.000000 125.460 135.6456
4940.000000 125.401 133.3137
5000.000000 125.315 130.9500
5080.000000 125.214 128.0372
5150.000000 125.097 125.2726
5220.000000 124.975 122.2100
5300.000000 124.806 118.7676
5380.000000 124.604 114.9005
5450.000000 124.441 111.4064
5520.000000 124.243 107.6507
5600.000000 124.051 102.9608
5700.000000 123.820 96.1646
5800.000000 123.631 88.6279
5900.000000 123.511 79.4469
6000.000000 123.484 68.1345
6080.000000 123.507 57.3128
6150.000000 123.646 46.2737
6220.000000 123.808 33.5417
6300.000000 124.001 17.4685
6400.000000 124.136 -5.0981
6500.000000 124.055 -27.7729
6600.000000 123.750 -48.6545
6700.000000 123.310 -66.3119
6800.000000 122.836 -80.8589
6900.000000 122.483 -91.8564
7000.000000 122.194 -100.2179
7100.000000 122.056 -106.8793
7200.000000 122.015 -111.8692
7300.000000 122.031 -116.0059
7400.000000 122.165 -119.5457
7500.000000 122.346 -122.4822
7620.000000 122.597 -126.3379
7750.000000 122.962 -130.5817
7880.000000 123.280 -135.2389
8000.000000 123.514 -140.2625
8120.000000 123.592 -146.1281
8250.000000 123.460 -152.3978
8380.000000 123.093 -158.1914
8500.000000 122.697 -162.2021
8620.000000 122.297 -165.4335
8750.000000 121.791 -170.4637
8850.000000 121.003 -173.3195
9000.000000 119.902 -173.5411
9120.000000 119.276 -171.8920
9250.000000 118.797 -170.3770
9380.000000 118.402 -169.0077
9500.000000 118.000 -167.6903
9620.000000 117.662 -166.5063
9750.000000 117.228 -164.4469
9880.000000 116.919 -161.9729
10000.000000 116.611 -158.8580
10150.000000 116.483 -155.0662
10300.000000 116.423 -151.6983
10440.000000 116.541 -148.1639
10600.000000 116.788 -144.1716
10750.000000 117.094 -140.8594
10900.000000 117.487 -137.9734
11060.000000 117.893 -135.4338
11200.000000 118.357 -133.4934
11380.000000 119.027 -131.9843
11500.000000 119.531 -131.8313
11720.000000 120.476 -132.6534
11800.000000 120.842 -133.4815
12060.000000 121.691 -138.5310
12200.000000 122.019 -141.9858
12410.000000 122.036 -147.7462
12500.000000 121.904 -150.0154
12650.000000 121.643 -152.3167
12800.000000 121.438 -153.9702
13150.000000 120.865 -156.7537
13200.000000 120.796 -156.9684
13400.000000 120.479 -157.1384
13600.000000 120.165 -156.5724
13800.000000 120.009 -155.4418
14000.000000 119.913 -154.4985
14300.000000 120.017 -152.2008
14500.000000 120.343 -150.7960
14750.000000 120.920 -149.7746
15000.000000 121.948 -149.8514
15250.000000 123.304 -153.2524
15500.000000 124.936 -161.9021
15750.000000 126.195 -179.1038
16000.000000 125.990 159.1953
16250.000000 124.332 141.2996
16500.000000 122.167 131.3996
16750.000000 120.228 126.6479
17000.000000 118.734 124.4266
17250.000000 117.422 123.8953
17500.000000 116.370 122.9152
17750.000000 115.465 121.6455
18000.000000 114.508 120.7216
18250.000000 113.305 118.8988
18500.000000 112.390 117.4106
18750.000000 111.093 116.2831
19000.000000 109.693 119.2056
19250.000000 108.937 126.8210
19500.000000 109.431 124.8967
19750.000000 108.792 116.8512
