* Measurement data measured by REW V5.31.1
* Source: Microphone (USB Sound Device        ), MICROPHONE (Master Volume), L, volume: 0.250
* Format: 256k Log Swept Sine, 1 sweep at -20.0 dBFS with no timing reference
* Dated: Nov 12, 2025 6:06:15 PM
* REW Settings:
*  C-weighting compensation: Off
*  Target level: 75.0 dB
* Note: 
* Measurement: L Zhulinniao Zhu Rythme 1017
* Smoothing: None
* Frequency Step: 1/48 octave
* Start Frequency: 20.300 Hz
*
* Freq(Hz) SPL(dB) Phase(degrees)
20.299999 133.229 34.9973
20.600000 133.254 34.1137
20.900000 133.265 33.3205
21.200001 133.264 32.5610
21.400000 133.259 32.0793
21.799999 133.247 31.1679
22.000000 133.241 30.7295
22.400000 133.235 29.8591
22.700001 133.236 29.1913
23.000000 133.238 28.5030
23.299999 133.240 27.8023
23.600000 133.241 27.0982
24.000000 133.242 26.1601
24.299999 133.242 25.4477
24.700001 133.241 24.4625
25.000000 133.236 23.6902
25.400000 133.217 22.6409
25.799999 133.183 21.6483
26.200001 133.141 20.8017
26.500000 133.114 20.2768
26.900000 133.096 19.6660
27.200001 133.099 19.1894
27.600000 133.116 18.4170
28.000000 133.125 17.4444
28.500000 133.100 16.0911
29.000000 133.039 14.9095
29.500000 132.981 14.1024
30.000000 132.965 13.5746
30.400000 132.979 13.1828
30.700001 132.993 12.8491
31.100000 133.001 12.3482
31.500000 132.989 11.8141
32.000000 132.951 11.1219
32.500000 132.904 10.3501
33.000000 132.855 9.4450
33.500000 132.807 8.4555
34.000000 132.768 7.5020
34.500000 132.748 6.6611
35.000000 132.749 5.9306
35.500000 132.756 5.2895
36.000000 132.761 4.7302
36.500000 132.759 4.2258
37.000000 132.749 3.7117
37.500000 132.728 3.1374
38.200001 132.680 2.2365
38.700001 132.636 1.5541
39.500000 132.547 0.4773
40.000000 132.481 -0.0539
40.599998 132.415 -0.4305
41.200001 132.401 -0.7288
41.799999 132.423 -1.3662
42.500000 132.413 -2.6337
43.099998 132.348 -3.6875
43.700001 132.287 -4.3671
44.400002 132.261 -4.8821
45.000000 132.235 -5.3128
45.500000 132.180 -5.6140
46.200001 132.083 -5.9670
46.799999 132.021 -6.5280
47.500000 131.967 -7.6323
48.200001 131.920 -8.5947
48.700001 131.907 -8.8950
49.400002 131.917 -8.9913
50.000000 131.905 -9.1692
50.799999 131.833 -9.8366
51.500000 131.754 -10.8034
52.200001 131.685 -11.7041
53.000000 131.650 -12.0456
53.799999 131.660 -12.2210
54.500000 131.603 -12.8985
55.200001 131.474 -13.6725
56.000000 131.397 -14.2685
57.000000 131.431 -15.1219
58.000000 131.402 -15.7040
59.000000 131.346 -16.1151
60.000000 131.290 -16.7110
60.799999 131.267 -17.1354
61.500000 131.242 -17.5361
62.200001 131.195 -17.8631
63.000000 131.148 -18.2134
64.000000 131.071 -18.8990
65.000000 130.943 -19.3973
66.000000 130.844 -19.9347
67.000000 130.730 -20.8139
68.000000 130.649 -21.1612
69.000000 130.684 -21.4166
70.000000 130.649 -21.9022
71.000000 130.557 -21.9338
72.000000 130.486 -22.2790
73.000000 130.386 -22.6767
74.000000 130.334 -23.0061
75.000000 130.258 -23.4798
76.199997 130.160 -23.9247
77.500000 130.052 -24.7612
78.800003 129.997 -25.3722
80.000000 129.961 -25.6532
81.199997 129.898 -25.8983
82.500000 129.796 -26.3262
83.800003 129.714 -26.6340
85.000000 129.668 -26.9309
86.199997 129.626 -27.2544
87.500000 129.554 -27.2528
88.500000 129.497 -27.3721
90.000000 129.390 -27.9234
91.199997 129.335 -28.3767
92.500000 129.262 -28.6897
93.800003 129.221 -29.1336
95.000000 129.140 -29.3432
96.199997 129.084 -29.5051
97.500000 128.969 -29.6994
98.800003 128.917 -29.8407
100.000000 128.846 -30.0634
101.500000 128.781 -30.1640
103.000000 128.661 -30.2141
104.400002 128.579 -30.2825
106.000000 128.481 -30.5060
107.500000 128.397 -30.4385
109.000000 128.290 -30.6157
110.599998 128.248 -30.9771
112.000000 128.186 -31.1940
113.800003 128.077 -31.3568
115.000000 128.026 -31.5484
117.199997 127.896 -31.6560
118.000000 127.877 -31.7434
120.599998 127.734 -31.6850
122.000000 127.691 -31.5256
124.099998 127.575 -31.4694
125.000000 127.557 -31.5364
126.500000 127.492 -31.5980
128.000000 127.413 -31.6708
131.500000 127.262 -31.7108
132.000000 127.235 -31.8831
134.000000 127.146 -31.9911
136.000000 127.052 -31.9282
138.000000 126.973 -31.9753
140.000000 126.890 -31.9281
143.000000 126.795 -31.5494
145.000000 126.706 -31.3413
147.500000 126.583 -31.1959
150.000000 126.520 -31.1980
152.500000 126.398 -31.1094
155.000000 126.327 -31.1226
157.500000 126.237 -31.1782
160.000000 126.168 -31.0179
162.500000 126.096 -30.6643
165.000000 125.977 -30.4555
167.500000 125.895 -30.1957
170.000000 125.820 -29.8289
172.500000 125.760 -29.4600
175.000000 125.690 -29.4495
177.500000 125.650 -29.3300
180.000000 125.579 -29.3086
182.500000 125.539 -29.2221
185.000000 125.476 -29.0115
187.500000 125.435 -29.0411
190.000000 125.381 -28.6007
192.500000 125.322 -28.3325
195.000000 125.249 -27.8848
197.500000 125.187 -27.6283
200.000000 125.100 -27.2438
203.000000 125.021 -26.9558
206.000000 124.940 -26.6984
209.000000 124.891 -26.4088
212.000000 124.856 -26.2885
214.000000 124.825 -25.9697
218.000000 124.777 -25.7266
220.000000 124.756 -25.5201
224.000000 124.692 -25.1740
227.000000 124.660 -25.0121
230.000000 124.600 -24.6076
233.000000 124.533 -24.1596
236.000000 124.509 -23.9077
240.000000 124.445 -23.2838
243.000000 124.393 -23.0148
247.000000 124.338 -22.6074
250.000000 124.309 -22.2647
254.000000 124.283 -21.8853
258.000000 124.243 -21.7430
262.000000 124.202 -21.2543
265.000000 124.193 -20.9417
269.000000 124.137 -20.5290
272.000000 124.101 -20.2502
276.000000 124.047 -19.7167
280.000000 124.016 -19.2440
285.000000 123.956 -18.6415
290.000000 123.892 -18.2073
295.000000 123.859 -17.8975
300.000000 123.846 -17.5276
304.000000 123.827 -17.1232
307.000000 123.802 -16.8154
311.000000 123.781 -16.5471
315.000000 123.768 -16.1264
320.000000 123.750 -15.9139
325.000000 123.704 -15.3807
330.000000 123.676 -15.0696
335.000000 123.644 -14.7131
340.000000 123.601 -14.2969
345.000000 123.595 -13.8695
350.000000 123.566 -13.5586
355.000000 123.532 -13.1910
360.000000 123.512 -12.8575
365.000000 123.501 -12.4630
370.000000 123.497 -12.0497
375.000000 123.470 -11.6972
382.000000 123.469 -11.2569
387.000000 123.454 -10.9183
395.000000 123.433 -10.4620
400.000000 123.407 -10.1149
406.000000 123.379 -9.5546
412.000000 123.318 -9.1409
418.000000 123.261 -8.6149
425.000000 123.237 -7.8257
431.000000 123.152 -7.5837
437.000000 123.181 -7.5554
444.000000 123.122 -7.1066
450.000000 123.251 -6.5915
455.000000 123.208 -6.7954
462.000000 123.219 -6.3126
468.000000 123.088 -4.6922
475.000000 123.022 -4.8874
482.000000 123.093 -5.1239
487.000000 123.109 -4.7365
494.000000 123.185 -3.3368
500.000000 123.117 -3.8611
508.000000 123.124 -3.0622
515.000000 122.941 -1.8606
522.000000 123.067 -1.9276
530.000000 123.004 -0.6705
538.000000 122.890 -1.0508
545.000000 122.946 0.1689
552.000000 123.039 0.2912
560.000000 122.913 0.1039
570.000000 122.934 0.6863
580.000000 122.980 1.3395
590.000000 123.012 2.4540
600.000000 122.891 3.6657
608.000000 122.874 4.1762
615.000000 122.788 4.4097
622.000000 122.855 4.3109
630.000000 122.886 5.0237
640.000000 122.811 5.8694
650.000000 122.839 6.9595
660.000000 122.904 7.6303
670.000000 122.919 8.2581
680.000000 122.920 8.9360
690.000000 122.930 9.3238
700.000000 123.012 9.7994
710.000000 123.022 10.6258
720.000000 122.999 10.9894
730.000000 123.057 11.9158
740.000000 123.042 12.2866
750.000000 123.050 13.3359
762.000000 123.121 13.7272
775.000000 123.113 14.7956
788.000000 123.196 15.5143
800.000000 123.203 16.0543
812.000000 123.251 16.9733
825.000000 123.298 17.6582
838.000000 123.367 18.5940
850.000000 123.420 19.3749
862.000000 123.489 19.8919
875.000000 123.559 20.9233
885.000000 123.616 21.2041
900.000000 123.646 22.1434
912.000000 123.698 23.1577
925.000000 123.887 24.0690
938.000000 124.044 24.3745
950.000000 124.187 24.4789
962.000000 124.309 24.8297
975.000000 124.425 25.6426
988.000000 124.470 26.5570
1000.000000 124.517 26.9654
1015.000000 124.607 27.4101
1030.000000 124.703 28.0101
1044.000000 124.805 28.4374
1060.000000 124.923 28.7934
1075.000000 125.045 28.9908
1090.000000 125.180 29.5264
1106.000000 125.284 29.6249
1120.000000 125.397 30.0599
1138.000000 125.517 30.3471
1150.000000 125.580 30.1906
1172.000000 125.674 30.4404
1180.000000 125.732 30.3937
1206.000000 125.846 30.8600
1220.000000 125.961 30.7257
1241.000000 126.117 30.9834
1250.000000 126.187 30.7633
1265.000000 126.270 30.8264
1280.000000 126.387 30.9272
1315.000000 126.573 30.9138
1320.000000 126.597 30.9083
1340.000000 126.689 30.7136
1360.000000 126.784 30.8714
1380.000000 126.864 30.6164
1400.000000 126.906 30.7023
1430.000000 127.051 30.6397
1450.000000 127.119 30.5098
1475.000000 127.250 30.4929
1500.000000 127.346 30.4194
1525.000000 127.456 30.2457
1550.000000 127.545 30.2594
1575.000000 127.624 30.0605
1600.000000 127.697 30.1059
1625.000000 127.772 29.9790
1650.000000 127.825 29.8592
1675.000000 127.900 29.8508
1700.000000 128.001 29.6626
1725.000000 128.125 29.4493
1750.000000 128.244 29.3159
1775.000000 128.349 29.0968
1800.000000 128.452 28.8914
1825.000000 128.541 28.6814
1850.000000 128.625 28.4671
1875.000000 128.689 28.2595
1900.000000 128.746 27.9546
1925.000000 128.791 27.7157
1950.000000 128.851 27.4417
1975.000000 128.904 27.1159
2000.000000 128.993 26.7892
2030.000000 129.097 26.3816
2060.000000 129.212 25.8415
2090.000000 129.305 25.4216
2120.000000 129.392 24.9597
2140.000000 129.449 24.5700
2180.000000 129.519 23.9509
2200.000000 129.556 23.5813
2240.000000 129.613 22.8588
2270.000000 129.647 22.3477
2300.000000 129.683 21.8112
2330.000000 129.727 21.2520
2360.000000 129.780 20.7054
2400.000000 129.844 19.9840
2430.000000 129.891 19.4520
2470.000000 129.957 18.7046
2500.000000 130.004 18.1996
2540.000000 130.066 17.4429
2580.000000 130.096 16.5779
2620.000000 130.124 15.8387
2650.000000 130.144 15.1673
2690.000000 130.162 14.1704
2720.000000 130.182 13.3565
2760.000000 130.196 12.2471
2800.000000 130.195 11.0024
2850.000000 130.159 9.7009
2900.000000 130.077 8.7017
2950.000000 129.979 7.8697
3000.000000 129.874 7.4447
3040.000000 129.777 7.0920
3070.000000 129.695 6.9477
3110.000000 129.599 6.9920
3150.000000 129.527 6.9206
3200.000000 129.468 7.0833
3250.000000 129.433 7.2319
3300.000000 129.469 7.3471
3350.000000 129.532 7.4293
3400.000000 129.625 7.4346
3450.000000 129.740 6.9981
3500.000000 129.858 6.5878
3550.000000 129.926 6.0965
3600.000000 129.978 5.4013
3650.000000 130.032 4.6099
3700.000000 130.062 3.7728
3750.000000 130.058 3.0892
3820.000000 130.041 2.0623
3870.000000 130.019 1.3460
3950.000000 130.008 0.2505
4000.000000 130.005 -0.5657
4060.000000 129.982 -1.0671
4120.000000 130.040 -0.7315
4180.000000 130.315 -2.3729
4250.000000 130.354 -5.1201
4310.000000 130.328 -6.8676
4370.000000 130.277 -8.6611
4440.000000 130.204 -10.6984
4500.000000 130.098 -12.5450
4550.000000 129.971 -14.0522
4620.000000 129.725 -15.9602
4680.000000 129.487 -17.4901
4750.000000 129.177 -19.0890
4820.000000 128.841 -20.3598
4870.000000 128.611 -21.0860
4940.000000 128.270 -21.8177
5000.000000 127.936 -22.2924
5080.000000 127.537 -22.2113
5150.000000 127.187 -22.0258
5220.000000 126.849 -21.5389
5300.000000 126.467 -20.6358
5380.000000 126.083 -19.5476
5450.000000 125.780 -18.4056
5520.000000 125.513 -17.0089
5600.000000 125.208 -15.2511
5700.000000 124.913 -12.8707
5800.000000 124.666 -10.5673
5900.000000 124.510 -8.0469
6000.000000 124.399 -5.7126
6080.000000 124.354 -3.9071
6150.000000 124.327 -2.3516
6220.000000 124.290 -0.8552
6300.000000 124.226 0.7192
6400.000000 124.160 2.7178
6500.000000 124.133 4.6251
6600.000000 124.070 6.3706
6700.000000 124.018 8.0765
6800.000000 124.042 9.8826
6900.000000 124.058 11.8527
7000.000000 124.062 13.8737
7100.000000 124.091 16.0471
7200.000000 124.160 18.1263
7300.000000 124.251 20.4908
7400.000000 124.388 22.6667
7500.000000 124.550 24.6414
7620.000000 124.769 27.1768
7750.000000 125.104 29.4663
7880.000000 125.528 31.3576
8000.000000 126.024 32.4494
8120.000000 126.522 33.0807
8250.000000 127.139 32.4669
8380.000000 127.724 31.0141
8500.000000 128.208 28.3946
8620.000000 128.547 24.9349
8750.000000 128.702 20.4069
8850.000000 128.657 16.9363
9000.000000 128.372 12.4387
9120.000000 127.973 9.6368
9250.000000 127.530 7.8759
9380.000000 127.052 7.2432
9500.000000 126.641 7.3749
9620.000000 126.285 8.4446
9750.000000 126.076 10.5778
9880.000000 126.017 12.4902
10000.000000 126.048 14.4417
10150.000000 126.306 16.5014
10300.000000 126.806 17.4231
10440.000000 127.356 16.4392
10600.000000 127.992 12.2104
10750.000000 128.181 5.2734
10900.000000 127.676 -2.0032
11060.000000 126.561 -6.6378
11200.000000 125.444 -6.5297
11380.000000 124.376 -2.1969
11500.000000 123.929 1.8541
11720.000000 123.786 10.1357
11800.000000 123.872 12.4573
12060.000000 124.777 18.5025
12200.000000 125.478 19.1047
12410.000000 126.427 16.3123
12500.000000 126.728 13.7882
12650.000000 126.970 8.1185
12800.000000 126.835 2.3737
13150.000000 125.444 -6.7467
13200.000000 125.185 -7.3879
13400.000000 124.202 -8.2085
13600.000000 123.364 -7.1679
13800.000000 122.701 -5.0853
14000.000000 122.241 -2.5491
14300.000000 122.005 0.8314
14500.000000 122.101 2.2680
14750.000000 122.409 1.1870
15000.000000 122.589 -3.3803
15250.000000 122.299 -10.6293
15500.000000 121.331 -15.4644
15750.000000 120.531 -15.5450
16000.000000 120.521 -16.4569
16250.000000 120.358 -22.5371
16500.000000 119.604 -28.3783
16750.000000 119.074 -28.1687
17000.000000 120.587 -31.7587
17250.000000 122.615 -60.7201
17500.000000 118.854 -102.6201
17750.000000 113.097 -115.8699
18000.000000 108.313 -119.7625
18250.000000 103.988 -118.1699
18500.000000 100.213 -111.3745
18750.000000 96.651 -112.7976
19000.000000 93.328 -104.4932
19250.000000 88.347 -110.1726
19500.000000 82.859 -109.2646
19750.000000 80.196 -124.0689
